Wavelength (nm),Intensity Source #25,,Untitled.sp,,,Source #25,
379.792,1.801,,2018-06-12 12:15:30,,Integration Time,165 ms,
380.000,1.796,,Analyze Light,,Number of Scans to Average,25,
380.209,1.791,,,,Smoothing,1,
380.418,1.798
380.627,1.812
380.837,1.826
381.048,1.835
381.259,1.840
381.471,1.844
381.683,1.852
381.896,1.864
382.110,1.870
382.324,1.881
382.538,1.898
382.753,1.915
382.969,1.911
383.185,1.897
383.402,1.886
383.619,1.889
383.837,1.902
384.055,1.927
384.274,1.950
384.493,1.966
384.712,1.972
384.932,1.980
385.153,1.988
385.374,1.999
385.596,2.007
385.818,2.024
386.040,2.044
386.263,2.060
386.487,2.060
386.710,2.055
386.935,2.043
387.159,2.043
387.385,2.042
387.610,2.047
387.836,2.053
388.063,2.064
388.289,2.078
388.517,2.087
388.744,2.088
388.972,2.096
389.201,2.102
389.430,2.112
389.659,2.118
389.889,2.128
390.119,2.140
390.349,2.149
390.580,2.157
390.811,2.165
391.042,2.170
391.274,2.175
391.507,2.180
391.739,2.183
391.972,2.180
392.205,2.182
392.439,2.194
392.673,2.214
392.907,2.232
393.142,2.250
393.377,2.260
393.612,2.273
393.848,2.279
394.084,2.288
394.320,2.293
394.557,2.305
394.794,2.313
395.031,2.327
395.269,2.336
395.507,2.347
395.745,2.351
395.983,2.356
396.222,2.366
396.461,2.386
396.700,2.408
396.940,2.423
397.180,2.429
397.420,2.430
397.660,2.430
397.901,2.429
398.142,2.435
398.383,2.439
398.625,2.440
398.866,2.447
399.108,2.467
399.351,2.500
399.593,2.510
399.836,2.510
400.079,2.501
400.322,2.499
400.566,2.494
400.809,2.494
401.053,2.499
401.298,2.508
401.542,2.518
401.787,2.530
402.031,2.546
402.277,2.563
402.522,2.573
402.767,2.582
403.013,2.584
403.259,2.590
403.505,2.594
403.752,2.599
403.998,2.601
404.245,2.615
404.492,2.632
404.739,2.648
404.986,2.656
405.234,2.665
405.482,2.671
405.730,2.673
405.978,2.675
406.226,2.677
406.475,2.676
406.723,2.679
406.972,2.690
407.221,2.711
407.470,2.724
407.720,2.737
407.969,2.734
408.219,2.740
408.469,2.743
408.719,2.755
408.969,2.760
409.219,2.768
409.470,2.774
409.720,2.787
409.971,2.799
410.222,2.817
410.473,2.822
410.724,2.824
410.976,2.825
411.227,2.836
411.479,2.843
411.731,2.851
411.983,2.855
412.235,2.870
412.487,2.875
412.740,2.881
412.992,2.879
413.245,2.882
413.497,2.887
413.750,2.890
414.003,2.884
414.257,2.877
414.510,2.874
414.763,2.891
415.017,2.907
415.270,2.921
415.524,2.914
415.778,2.910
416.032,2.904
416.286,2.917
416.540,2.929
416.794,2.948
417.049,2.955
417.303,2.967
417.558,2.973
417.812,2.977
418.067,2.973
418.322,2.969
418.577,2.962
418.832,2.956
419.088,2.945
419.343,2.947
419.598,2.939
419.854,2.940
420.109,2.938
420.365,2.955
420.621,2.965
420.876,2.977
421.132,2.982
421.388,2.987
421.645,2.984
421.901,2.988
422.157,2.991
422.413,3.000
422.670,3.003
422.926,3.008
423.183,3.003
423.439,3.013
423.696,3.032
423.953,3.078
424.210,3.117
424.467,3.141
424.724,3.144
424.981,3.143
425.238,3.154
425.495,3.179
425.753,3.204
426.010,3.230
426.267,3.255
426.525,3.298
426.782,3.338
427.040,3.382
427.298,3.421
427.555,3.477
427.813,3.522
428.071,3.571
428.329,3.614
428.587,3.671
428.845,3.729
429.103,3.797
429.361,3.866
429.619,3.943
429.878,4.015
430.136,4.102
430.394,4.189
430.653,4.300
430.911,4.415
431.170,4.545
431.428,4.666
431.687,4.793
431.946,4.912
432.204,5.041
432.463,5.170
432.722,5.310
432.981,5.454
433.240,5.625
433.499,5.810
433.758,6.017
434.017,6.211
434.276,6.408
434.535,6.595
434.794,6.808
435.053,7.028
435.312,7.269
435.572,7.509
435.831,7.775
436.090,8.057
436.350,8.358
436.609,8.650
436.869,8.951
437.128,9.260
437.388,9.587
437.647,9.922
437.907,10.280
438.166,10.655
438.426,11.040
438.686,11.430
438.946,11.847
439.205,12.295
439.465,12.771
439.725,13.257
439.985,13.773
440.245,14.298
440.505,14.846
440.765,15.397
441.025,15.962
441.285,16.543
441.545,17.150
441.805,17.782
442.065,18.450
442.325,19.140
442.585,19.877
442.846,20.627
443.106,21.429
443.366,22.254
443.626,23.128
443.887,24.037
444.147,24.984
444.407,25.967
444.668,26.983
444.928,28.056
445.189,29.190
445.449,30.364
445.710,31.578
445.970,32.829
446.231,34.162
446.491,35.563
446.752,37.023
447.012,38.529
447.273,40.094
447.534,41.702
447.794,43.345
448.055,45.044
448.316,46.842
448.577,48.729
448.837,50.674
449.098,52.662
449.359,54.674
449.620,56.703
449.881,58.749
450.142,60.825
450.403,62.948
450.664,65.123
450.924,67.316
451.185,69.521
451.446,71.722
451.707,73.915
451.969,76.095
452.230,78.214
452.491,80.251
452.752,82.126
453.013,83.788
453.274,85.202
453.535,86.371
453.796,87.350
454.058,88.185
454.319,88.938
454.580,89.599
454.841,90.184
455.103,90.670
455.364,91.076
455.625,91.409
455.887,91.678
456.148,91.892
456.409,92.049
456.671,92.147
456.932,92.186
457.194,92.164
457.455,92.095
457.716,91.982
457.978,91.833
458.239,91.642
458.501,91.409
458.763,91.121
459.024,90.766
459.286,90.340
459.547,89.845
459.809,89.268
460.071,88.615
460.332,87.869
460.594,87.037
460.856,86.073
461.117,84.941
461.379,83.610
461.641,82.089
461.903,80.439
462.164,78.730
462.426,76.997
462.688,75.257
462.950,73.514
463.212,71.782
463.474,70.068
463.736,68.366
463.998,66.714
464.260,65.134
464.522,63.649
464.784,62.246
465.046,60.894
465.308,59.588
465.570,58.326
465.832,57.128
466.094,56.008
466.356,54.940
466.618,53.902
466.880,52.876
467.142,51.878
467.405,50.926
467.667,50.018
467.929,49.148
468.191,48.313
468.454,47.494
468.716,46.700
468.978,45.883
469.241,45.071
469.503,44.259
469.765,43.499
470.028,42.757
470.290,42.037
470.552,41.315
470.815,40.603
471.077,39.881
471.340,39.154
471.602,38.424
471.865,37.691
472.128,36.966
472.390,36.247
472.653,35.534
472.915,34.804
473.178,34.066
473.441,33.320
473.703,32.577
473.966,31.828
474.229,31.074
474.492,30.309
474.755,29.548
475.017,28.811
475.280,28.094
475.543,27.395
475.806,26.673
476.069,25.949
476.332,25.214
476.595,24.517
476.858,23.822
477.121,23.153
477.384,22.496
477.647,21.881
477.910,21.283
478.173,20.700
478.436,20.126
478.699,19.577
478.962,19.043
479.226,18.541
479.489,18.047
479.752,17.571
480.015,17.086
480.279,16.618
480.542,16.164
480.805,15.731
481.069,15.308
481.332,14.910
481.595,14.529
481.859,14.178
482.122,13.825
482.386,13.487
482.649,13.153
482.913,12.834
483.177,12.509
483.440,12.192
483.704,11.896
483.967,11.639
484.231,11.391
484.495,11.153
484.759,10.899
485.022,10.649
485.286,10.391
485.550,10.147
485.814,9.890
486.078,9.647
486.342,9.406
486.606,9.199
486.869,8.990
487.133,8.797
487.397,8.600
487.662,8.405
487.926,8.192
488.190,7.981
488.454,7.771
488.718,7.582
488.982,7.388
489.246,7.206
489.511,7.011
489.775,6.825
490.039,6.639
490.304,6.470
490.568,6.294
490.832,6.129
491.097,5.964
491.361,5.820
491.626,5.666
491.890,5.517
492.155,5.361
492.419,5.227
492.684,5.085
492.949,4.944
493.213,4.798
493.478,4.670
493.743,4.539
494.008,4.403
494.272,4.262
494.537,4.148
494.802,4.047
495.067,3.963
495.332,3.871
495.597,3.785
495.862,3.687
496.127,3.594
496.392,3.499
496.657,3.410
496.922,3.322
497.187,3.247
497.452,3.180
497.718,3.129
497.983,3.066
498.248,3.004
498.513,2.932
498.779,2.884
499.044,2.837
499.310,2.786
499.575,2.716
499.841,2.657
500.106,2.609
500.372,2.561
500.637,2.511
500.903,2.478
501.168,2.447
501.434,2.411
501.700,2.358
501.966,2.318
502.231,2.281
502.497,2.252
502.763,2.215
503.029,2.183
503.295,2.152
503.561,2.126
503.827,2.110
504.093,2.093
504.359,2.070
504.625,2.045
504.891,2.017
505.157,1.997
505.423,1.968
505.690,1.938
505.956,1.909
506.222,1.892
506.489,1.890
506.755,1.893
507.021,1.891
507.288,1.878
507.554,1.853
507.821,1.830
508.087,1.813
508.354,1.811
508.621,1.804
508.887,1.791
509.154,1.774
509.421,1.759
509.687,1.739
509.954,1.718
510.221,1.701
510.488,1.700
510.755,1.702
511.022,1.702
511.289,1.688
511.556,1.671
511.823,1.654
512.090,1.652
512.357,1.646
512.624,1.638
512.891,1.623
513.159,1.610
513.426,1.599
513.693,1.594
513.960,1.595
514.228,1.594
514.495,1.589
514.763,1.580
515.030,1.566
515.298,1.552
515.565,1.544
515.833,1.540
516.100,1.528
516.368,1.516
516.636,1.506
516.904,1.510
517.171,1.505
517.439,1.499
517.707,1.484
517.975,1.475
518.243,1.470
518.511,1.465
518.779,1.454
519.047,1.452
519.315,1.452
519.583,1.454
519.851,1.441
520.119,1.429
520.387,1.418
520.656,1.418
520.924,1.424
521.192,1.432
521.461,1.436
521.729,1.436
521.997,1.434
522.266,1.430
522.534,1.423
522.803,1.419
523.071,1.414
523.340,1.408
523.609,1.398
523.877,1.391
524.146,1.387
524.415,1.388
524.684,1.392
524.952,1.391
525.221,1.391
525.490,1.394
525.759,1.398
526.028,1.397
526.297,1.385
526.566,1.375
526.835,1.367
527.104,1.369
527.373,1.378
527.642,1.385
527.912,1.383
528.181,1.374
528.450,1.364
528.719,1.361
528.989,1.368
529.258,1.377
529.528,1.379
529.797,1.371
530.067,1.365
530.336,1.361
530.606,1.355
530.875,1.345
531.145,1.338
531.414,1.339
531.684,1.345
531.954,1.347
532.224,1.340
532.493,1.327
532.763,1.321
533.033,1.325
533.303,1.338
533.573,1.346
533.843,1.342
534.113,1.332
534.383,1.321
534.653,1.320
534.923,1.321
535.193,1.327
535.463,1.340
535.733,1.355
536.004,1.370
536.274,1.370
536.544,1.361
536.814,1.347
537.085,1.337
537.355,1.340
537.626,1.348
537.896,1.356
538.166,1.356
538.437,1.352
538.707,1.346
538.978,1.344
539.249,1.350
539.519,1.354
539.790,1.351
540.061,1.346
540.331,1.350
540.602,1.365
540.873,1.375
541.144,1.378
541.414,1.372
541.685,1.368
541.956,1.366
542.227,1.365
542.498,1.360
542.769,1.357
543.040,1.359
543.311,1.368
543.582,1.379
543.853,1.384
544.124,1.385
544.396,1.385
544.667,1.386
544.938,1.382
545.209,1.362
545.480,1.350
545.752,1.347
546.023,1.357
546.294,1.352
546.566,1.339
546.837,1.324
547.109,1.319
547.380,1.315
547.652,1.311
547.923,1.308
548.195,1.316
548.466,1.331
548.738,1.346
549.009,1.347
549.281,1.340
549.553,1.323
549.824,1.303
550.096,1.290
550.368,1.289
550.640,1.296
550.911,1.301
551.183,1.311
551.455,1.327
551.727,1.337
551.999,1.331
552.271,1.316
552.543,1.305
552.815,1.301
553.087,1.310
553.359,1.319
553.631,1.326
553.903,1.325
554.175,1.326
554.447,1.329
554.719,1.330
554.991,1.327
555.263,1.323
555.535,1.319
555.808,1.315
556.080,1.310
556.352,1.309
556.624,1.309
556.897,1.309
557.169,1.306
557.441,1.302
557.714,1.298
557.986,1.294
558.258,1.289
558.531,1.292
558.803,1.299
559.076,1.308
559.348,1.304
559.621,1.298
559.893,1.295
560.166,1.297
560.438,1.295
560.711,1.289
560.983,1.286
561.256,1.287
561.528,1.293
561.801,1.301
562.074,1.309
562.346,1.316
562.619,1.321
562.892,1.320
563.164,1.315
563.437,1.313
563.710,1.311
563.983,1.303
564.255,1.294
564.528,1.298
564.801,1.309
565.074,1.316
565.346,1.309
565.619,1.304
565.892,1.308
566.165,1.307
566.438,1.297
566.711,1.285
566.984,1.283
567.257,1.285
567.529,1.289
567.802,1.300
568.075,1.312
568.348,1.317
568.621,1.314
568.894,1.307
569.167,1.301
569.440,1.291
569.713,1.279
569.986,1.273
570.259,1.270
570.532,1.276
570.805,1.283
571.078,1.288
571.351,1.291
571.625,1.291
571.898,1.286
572.171,1.277
572.444,1.270
572.717,1.276
572.990,1.285
573.263,1.285
573.536,1.275
573.809,1.260
574.083,1.252
574.356,1.256
574.629,1.270
574.902,1.282
575.175,1.281
575.448,1.266
575.721,1.256
575.995,1.253
576.268,1.258
576.541,1.271
576.814,1.286
577.087,1.298
577.361,1.301
577.634,1.297
577.907,1.287
578.180,1.271
578.453,1.263
578.727,1.264
579.000,1.269
579.273,1.274
579.546,1.283
579.820,1.294
580.093,1.296
580.366,1.290
580.639,1.280
580.913,1.272
581.186,1.270
581.459,1.270
581.732,1.263
582.005,1.254
582.279,1.247
582.552,1.251
582.825,1.256
583.098,1.262
583.372,1.264
583.645,1.267
583.918,1.269
584.191,1.268
584.464,1.265
584.738,1.264
585.011,1.265
585.284,1.266
585.557,1.264
585.831,1.267
586.104,1.277
586.377,1.293
586.650,1.303
586.923,1.304
587.196,1.297
587.470,1.285
587.743,1.279
588.016,1.273
588.289,1.277
588.562,1.282
588.835,1.280
589.109,1.269
589.382,1.256
589.655,1.250
589.928,1.248
590.201,1.251
590.474,1.262
590.747,1.278
591.020,1.289
591.293,1.294
591.567,1.294
591.840,1.289
592.113,1.283
592.386,1.272
592.659,1.262
592.932,1.258
593.205,1.263
593.478,1.265
593.751,1.262
594.024,1.259
594.297,1.254
594.570,1.253
594.843,1.258
595.116,1.269
595.389,1.275
595.662,1.270
595.934,1.270
596.207,1.274
596.480,1.282
596.753,1.285
597.026,1.282
597.299,1.277
597.572,1.275
597.844,1.270
598.117,1.263
598.390,1.256
598.663,1.252
598.936,1.255
599.208,1.261
599.481,1.271
599.754,1.276
600.026,1.268
600.299,1.256
600.572,1.248
600.844,1.246
601.117,1.241
601.390,1.238
601.662,1.238
601.935,1.238
602.207,1.239
602.480,1.245
602.752,1.249
603.025,1.246
603.297,1.243
603.570,1.251
603.842,1.265
604.115,1.276
604.387,1.283
604.660,1.277
604.932,1.272
605.204,1.273
605.477,1.284
605.749,1.296
606.021,1.304
606.294,1.302
606.566,1.293
606.838,1.285
607.110,1.285
607.383,1.291
607.655,1.296
607.927,1.302
608.199,1.309
608.471,1.313
608.743,1.309
609.015,1.302
609.287,1.295
609.559,1.292
609.831,1.294
610.103,1.299
610.375,1.301
610.647,1.294
610.919,1.285
611.191,1.283
611.463,1.284
611.735,1.282
612.007,1.272
612.278,1.266
612.550,1.267
612.822,1.274
613.094,1.279
613.365,1.279
613.637,1.280
613.909,1.281
614.180,1.284
614.452,1.281
614.723,1.273
614.995,1.265
615.266,1.263
615.538,1.271
615.809,1.278
616.081,1.274
616.352,1.266
616.623,1.261
616.895,1.264
617.166,1.264
617.437,1.261
617.709,1.259
617.980,1.264
618.251,1.272
618.522,1.283
618.793,1.296
619.065,1.307
619.336,1.300
619.607,1.282
619.878,1.271
620.149,1.278
620.420,1.284
620.691,1.282
620.962,1.282
621.232,1.285
621.503,1.281
621.774,1.273
622.045,1.266
622.316,1.271
622.586,1.280
622.857,1.289
623.128,1.289
623.398,1.283
623.669,1.275
623.940,1.264
624.210,1.255
624.481,1.254
624.751,1.259
625.021,1.262
625.292,1.258
625.562,1.259
625.833,1.257
626.103,1.252
626.373,1.241
626.643,1.239
626.914,1.242
627.184,1.252
627.454,1.256
627.724,1.256
627.994,1.254
628.264,1.253
628.534,1.250
628.804,1.248
629.074,1.251
629.344,1.257
629.614,1.259
629.884,1.251
630.154,1.240
630.424,1.228
630.693,1.216
630.963,1.206
631.233,1.201
631.502,1.205
631.772,1.220
632.041,1.238
632.311,1.249
632.581,1.252
632.850,1.247
633.119,1.236
633.389,1.221
633.658,1.215
633.928,1.221
634.197,1.234
634.466,1.249
634.735,1.258
635.004,1.255
635.274,1.245
635.543,1.238
635.812,1.238
636.081,1.237
636.350,1.237
636.619,1.237
636.888,1.240
637.157,1.244
637.426,1.250
637.694,1.251
637.963,1.247
638.232,1.241
638.501,1.237
638.769,1.241
639.038,1.247
639.307,1.256
639.575,1.262
639.844,1.258
640.112,1.250
640.381,1.239
640.649,1.237
640.917,1.238
641.186,1.240
641.454,1.241
641.722,1.240
641.991,1.240
642.259,1.236
642.527,1.234
642.795,1.232
643.063,1.227
643.331,1.221
643.599,1.218
643.867,1.225
644.135,1.233
644.403,1.240
644.671,1.242
644.939,1.248
645.206,1.253
645.474,1.257
645.742,1.250
646.009,1.236
646.277,1.226
646.545,1.228
646.812,1.246
647.080,1.261
647.347,1.267
647.615,1.263
647.882,1.249
648.149,1.232
648.417,1.221
648.684,1.224
648.951,1.237
649.219,1.248
649.486,1.250
649.753,1.244
650.020,1.236
650.287,1.232
650.554,1.231
650.821,1.229
651.088,1.229
651.355,1.235
651.622,1.240
651.889,1.241
652.155,1.235
652.422,1.235
652.689,1.241
652.956,1.247
653.222,1.257
653.489,1.270
653.755,1.281
654.022,1.276
654.288,1.259
654.555,1.248
654.821,1.247
655.088,1.253
655.354,1.261
655.620,1.269
655.887,1.272
656.153,1.274
656.419,1.271
656.685,1.266
656.951,1.259
657.217,1.254
657.483,1.245
657.749,1.237
658.015,1.232
658.281,1.237
658.547,1.237
658.813,1.232
659.079,1.223
659.345,1.218
659.610,1.220
659.876,1.226
660.142,1.230
660.407,1.233
660.673,1.237
660.939,1.242
661.204,1.241
661.470,1.237
661.735,1.237
662.000,1.240
662.266,1.240
662.531,1.235
662.796,1.231
663.062,1.230
663.327,1.230
663.592,1.233
663.857,1.234
664.122,1.235
664.388,1.233
664.653,1.236
664.918,1.242
665.183,1.246
665.448,1.249
665.712,1.252
665.977,1.258
666.242,1.255
666.507,1.237
666.772,1.218
667.037,1.206
667.301,1.209
667.566,1.216
667.831,1.226
668.095,1.233
668.360,1.237
668.624,1.232
668.889,1.231
669.153,1.224
669.418,1.222
669.682,1.221
669.946,1.230
670.211,1.244
670.475,1.254
670.739,1.267
671.004,1.278
671.268,1.305
671.532,1.325
671.796,1.318
672.060,1.297
672.324,1.278
672.588,1.282
672.852,1.292
673.116,1.324
673.380,1.350
673.644,1.327
673.908,1.277
674.172,1.234
674.436,1.235
674.700,1.241
674.963,1.249
675.227,1.253
675.491,1.250
675.754,1.239
676.018,1.231
676.282,1.233
676.545,1.235
676.809,1.231
677.072,1.223
677.336,1.219
677.599,1.222
677.863,1.223
678.126,1.228
678.389,1.239
678.653,1.250
678.916,1.250
679.179,1.236
679.442,1.228
679.706,1.229
679.969,1.235
680.232,1.242
680.495,1.255
680.758,1.266
681.021,1.263
681.284,1.249
681.547,1.237
681.810,1.240
682.073,1.250
682.336,1.256
682.599,1.255
682.862,1.251
683.125,1.253
683.388,1.257
683.651,1.256
683.913,1.249
684.176,1.236
684.439,1.226
684.702,1.215
684.964,1.213
685.227,1.220
685.490,1.235
685.752,1.256
686.015,1.262
686.277,1.257
686.540,1.242
686.802,1.229
687.065,1.228
687.327,1.232
687.590,1.236
687.852,1.228
688.115,1.218
688.377,1.213
688.639,1.216
688.902,1.221
689.164,1.226
689.426,1.234
689.689,1.241
689.951,1.242
690.213,1.242
690.475,1.240
690.737,1.235
691.000,1.226
691.262,1.221
691.524,1.227
691.786,1.241
692.048,1.256
692.310,1.256
692.572,1.241
692.834,1.225
693.096,1.221
693.358,1.229
693.620,1.243
693.882,1.254
694.144,1.256
694.406,1.250
694.668,1.243
694.930,1.235
695.192,1.232
695.453,1.234
695.715,1.238
695.977,1.236
696.239,1.228
696.501,1.224
696.762,1.231
697.024,1.238
697.286,1.236
697.548,1.229
697.809,1.225
698.071,1.221
698.333,1.220
698.594,1.223
698.856,1.231
699.118,1.236
699.379,1.239
699.641,1.243
699.902,1.251
700.164,1.253
700.426,1.249
700.687,1.238
700.949,1.233
701.210,1.231
701.472,1.231
701.733,1.227
701.995,1.225
702.256,1.227
702.518,1.227
702.779,1.226
703.041,1.233
703.302,1.246
703.563,1.249
703.825,1.242
704.086,1.232
704.348,1.230
704.609,1.234
704.871,1.243
705.132,1.251
705.393,1.247
705.655,1.240
705.916,1.239
706.177,1.241
706.439,1.242
706.700,1.237
706.961,1.235
707.223,1.230
707.484,1.218
707.745,1.204
708.007,1.192
708.268,1.184
708.529,1.174
708.790,1.160
709.052,1.155
709.313,1.158
709.574,1.163
709.835,1.165
710.097,1.156
710.358,1.142
710.619,1.129
710.881,1.121
711.142,1.116
711.403,1.116
711.664,1.114
711.926,1.111
712.187,1.112
712.448,1.118
712.709,1.130
712.970,1.139
713.232,1.144
713.493,1.146
713.754,1.144
714.015,1.142
714.277,1.143
714.538,1.151
714.799,1.163
715.060,1.171
715.322,1.168
715.583,1.158
715.844,1.147
716.105,1.139
716.367,1.134
716.628,1.131
716.889,1.130
717.150,1.126
717.411,1.120
717.673,1.121
717.934,1.129
718.195,1.138
718.457,1.134
718.718,1.124
718.979,1.118
719.240,1.120
719.502,1.126
719.763,1.132
720.024,1.137
720.286,1.139
720.547,1.136
720.808,1.132
721.069,1.129
721.331,1.134
721.592,1.140
721.853,1.142
722.115,1.142
722.376,1.140
722.638,1.140
722.899,1.138
723.160,1.133
723.422,1.129
723.683,1.128
723.944,1.131
724.206,1.135
724.467,1.134
724.729,1.134
724.990,1.142
725.252,1.150
725.513,1.146
725.775,1.132
726.036,1.119
726.298,1.116
726.559,1.119
726.821,1.122
727.082,1.122
727.344,1.120
727.605,1.118
727.867,1.117
728.128,1.118
728.390,1.122
728.652,1.131
728.913,1.144
729.175,1.151
729.436,1.153
729.698,1.151
729.960,1.148
730.221,1.139
730.483,1.125
730.745,1.118
731.007,1.118
731.268,1.123
731.530,1.129
731.792,1.135
732.054,1.142
732.315,1.149
732.577,1.154
732.839,1.146
733.101,1.134
733.363,1.125
733.625,1.124
733.887,1.128
734.149,1.131
734.411,1.137
734.673,1.144
734.935,1.144
735.197,1.142
735.459,1.142
735.721,1.144
735.983,1.137
736.245,1.124
736.507,1.120
736.769,1.127
737.031,1.137
737.293,1.134
737.555,1.124
737.818,1.111
738.080,1.103
738.342,1.101
738.604,1.103
738.867,1.106
739.129,1.108
739.391,1.108
739.654,1.109
739.916,1.112
740.178,1.118
740.441,1.127
740.703,1.126
740.966,1.120
741.228,1.111
741.491,1.107
741.753,1.110
742.016,1.112
742.278,1.114
742.541,1.115
742.804,1.120
743.066,1.129
743.329,1.135
743.592,1.134
743.854,1.133
744.117,1.134
744.380,1.136
744.643,1.128
744.905,1.116
745.168,1.112
745.431,1.110
745.694,1.109
745.957,1.108
746.220,1.108
746.483,1.108
746.746,1.112
747.009,1.126
747.272,1.146
747.535,1.159
747.798,1.159
748.061,1.148
