Wavelength (nm),Intensity Source #24,,Untitled.sp,,,Source #24,
379.792,1.736,,2018-06-12 12:12:30,,Integration Time,121 ms,
380.000,1.737,,Analyze Light,,Number of Scans to Average,25,
380.209,1.738,,,,Smoothing,1,
380.418,1.749
380.627,1.765
380.837,1.780
381.048,1.787
381.259,1.789
381.471,1.791
381.683,1.797
381.896,1.807
382.110,1.814
382.324,1.824
382.538,1.832
382.753,1.841
382.969,1.839
383.185,1.836
383.402,1.834
383.619,1.842
383.837,1.853
384.055,1.868
384.274,1.882
384.493,1.892
384.712,1.897
384.932,1.904
385.153,1.912
385.374,1.922
385.596,1.932
385.818,1.947
386.040,1.962
386.263,1.977
386.487,1.984
386.710,1.986
386.935,1.979
387.159,1.972
387.385,1.966
387.610,1.965
387.836,1.965
388.063,1.973
388.289,1.984
388.517,1.998
388.744,2.004
388.972,2.012
389.201,2.017
389.430,2.026
389.659,2.033
389.889,2.048
390.119,2.061
390.349,2.074
390.580,2.085
390.811,2.094
391.042,2.095
391.274,2.098
391.507,2.105
391.739,2.112
391.972,2.110
392.205,2.112
392.439,2.121
392.673,2.138
392.907,2.147
393.142,2.159
393.377,2.169
393.612,2.190
393.848,2.204
394.084,2.213
394.320,2.213
394.557,2.219
394.794,2.225
395.031,2.236
395.269,2.248
395.507,2.264
395.745,2.272
395.983,2.278
396.222,2.285
396.461,2.302
396.700,2.322
396.940,2.337
397.180,2.344
397.420,2.345
397.660,2.340
397.901,2.337
398.142,2.342
398.383,2.350
398.625,2.355
398.866,2.365
399.108,2.382
399.351,2.406
399.593,2.413
399.836,2.416
400.079,2.410
400.322,2.412
400.566,2.412
400.809,2.412
401.053,2.412
401.298,2.418
401.542,2.427
401.787,2.443
402.031,2.457
402.277,2.471
402.522,2.477
402.767,2.486
403.013,2.489
403.259,2.496
403.505,2.497
403.752,2.502
403.998,2.504
404.245,2.519
404.492,2.535
404.739,2.552
404.986,2.560
405.234,2.568
405.482,2.574
405.730,2.580
405.978,2.583
406.226,2.585
406.475,2.580
406.723,2.581
406.972,2.589
407.221,2.609
407.470,2.626
407.720,2.641
407.969,2.642
408.219,2.646
408.469,2.652
408.719,2.668
408.969,2.679
409.219,2.691
409.470,2.697
409.720,2.705
409.971,2.709
410.222,2.719
410.473,2.724
410.724,2.730
410.976,2.738
411.227,2.752
411.479,2.764
411.731,2.772
411.983,2.772
412.235,2.775
412.487,2.776
412.740,2.785
412.992,2.790
413.245,2.800
413.497,2.802
413.750,2.809
414.003,2.809
414.257,2.814
414.510,2.816
414.763,2.825
415.017,2.830
415.270,2.837
415.524,2.835
415.778,2.832
416.032,2.829
416.286,2.840
416.540,2.852
416.794,2.867
417.049,2.870
417.303,2.874
417.558,2.876
417.812,2.879
418.067,2.881
418.322,2.885
418.577,2.888
418.832,2.892
419.088,2.885
419.343,2.887
419.598,2.880
419.854,2.883
420.109,2.883
420.365,2.891
420.621,2.892
420.876,2.898
421.132,2.901
421.388,2.907
421.645,2.906
421.901,2.912
422.157,2.914
422.413,2.918
422.670,2.917
422.926,2.922
423.183,2.922
423.439,2.934
423.696,2.950
423.953,2.981
424.210,3.005
424.467,3.024
424.724,3.032
424.981,3.036
425.238,3.045
425.495,3.070
425.753,3.100
426.010,3.131
426.267,3.154
426.525,3.189
426.782,3.220
427.040,3.258
427.298,3.297
427.555,3.351
427.813,3.401
428.071,3.451
428.329,3.502
428.587,3.560
428.845,3.619
429.103,3.682
429.361,3.744
429.619,3.815
429.878,3.885
430.136,3.966
430.394,4.049
430.653,4.151
430.911,4.256
431.170,4.371
431.428,4.478
431.687,4.594
431.946,4.705
432.204,4.826
432.463,4.952
432.722,5.098
432.981,5.247
433.240,5.413
433.499,5.582
433.758,5.771
434.017,5.951
434.276,6.149
434.535,6.344
434.794,6.557
435.053,6.767
435.312,6.996
435.572,7.228
435.831,7.482
436.090,7.756
436.350,8.050
436.609,8.346
436.869,8.644
437.128,8.941
437.388,9.256
437.647,9.583
437.907,9.935
438.166,10.284
438.426,10.659
438.686,11.037
438.946,11.433
439.205,11.832
439.465,12.268
439.725,12.730
439.985,13.211
440.245,13.687
440.505,14.171
440.765,14.659
441.025,15.162
441.285,15.676
441.545,16.212
441.805,16.766
442.065,17.341
442.325,17.939
442.585,18.568
442.846,19.218
443.106,19.910
443.366,20.611
443.626,21.349
443.887,22.099
444.147,22.892
444.407,23.706
444.668,24.574
444.928,25.462
445.189,26.404
445.449,27.374
445.710,28.399
445.970,29.468
446.231,30.598
446.491,31.788
446.752,33.036
447.012,34.326
447.273,35.678
447.534,37.090
447.794,38.566
448.055,40.103
448.316,41.712
448.577,43.409
448.837,45.192
449.098,47.041
449.359,48.943
449.620,50.886
449.881,52.897
450.142,54.961
450.403,57.099
450.664,59.304
450.924,61.581
451.185,63.899
451.446,66.225
451.707,68.566
451.969,70.906
452.230,73.251
452.491,75.569
452.752,77.838
453.013,80.018
453.274,82.049
453.535,83.847
453.796,85.352
454.058,86.588
454.319,87.616
454.580,88.509
454.841,89.272
455.103,89.924
455.364,90.471
455.625,90.938
455.887,91.319
456.148,91.611
456.409,91.815
456.671,91.941
456.932,91.998
457.194,91.989
457.455,91.922
457.716,91.789
457.978,91.603
458.239,91.358
458.501,91.060
458.763,90.682
459.024,90.225
459.286,89.665
459.547,89.018
459.809,88.251
460.071,87.364
460.332,86.319
460.594,85.081
460.856,83.618
461.117,81.954
461.379,80.164
461.641,78.320
461.903,76.443
462.164,74.564
462.426,72.697
462.688,70.870
462.950,69.098
463.212,67.383
463.474,65.721
463.736,64.087
463.998,62.520
464.260,61.041
464.522,59.658
464.784,58.344
465.046,57.089
465.308,55.911
465.570,54.805
465.832,53.758
466.094,52.775
466.356,51.844
466.618,50.952
466.880,50.071
467.142,49.222
467.405,48.419
467.667,47.662
467.929,46.919
468.191,46.198
468.454,45.481
468.716,44.789
468.978,44.082
469.241,43.368
469.503,42.633
469.765,41.929
470.028,41.239
470.290,40.566
470.552,39.879
470.815,39.194
471.077,38.510
471.340,37.812
471.602,37.102
471.865,36.365
472.128,35.627
472.390,34.889
472.653,34.174
472.915,33.457
473.178,32.735
473.441,31.990
473.703,31.228
473.966,30.455
474.229,29.681
474.492,28.916
474.755,28.159
475.017,27.427
475.280,26.702
475.543,26.004
475.806,25.295
476.069,24.600
476.332,23.889
476.595,23.208
476.858,22.538
477.121,21.895
477.384,21.270
477.647,20.672
477.910,20.100
478.173,19.547
478.436,19.004
478.699,18.485
478.962,17.982
479.226,17.507
479.489,17.038
479.752,16.584
480.015,16.148
480.279,15.725
480.542,15.312
480.805,14.915
481.069,14.538
481.332,14.178
481.595,13.825
481.859,13.494
482.122,13.173
482.386,12.868
482.649,12.557
482.913,12.261
483.177,11.960
483.440,11.676
483.704,11.400
483.967,11.153
484.231,10.913
484.495,10.684
484.759,10.449
485.022,10.223
485.286,9.987
485.550,9.752
485.814,9.498
486.078,9.257
486.342,9.023
486.606,8.823
486.869,8.630
487.133,8.450
487.397,8.260
487.662,8.071
487.926,7.862
488.190,7.658
488.454,7.446
488.718,7.253
488.982,7.053
489.246,6.870
489.511,6.690
489.775,6.523
490.039,6.345
490.304,6.165
490.568,5.979
490.832,5.812
491.097,5.649
491.361,5.500
491.626,5.346
491.890,5.206
492.155,5.061
492.419,4.929
492.684,4.781
492.949,4.641
493.213,4.499
493.478,4.382
493.743,4.258
494.008,4.130
494.272,3.997
494.537,3.886
494.802,3.784
495.067,3.695
495.332,3.609
495.597,3.532
495.862,3.449
496.127,3.367
496.392,3.283
496.657,3.199
496.922,3.114
497.187,3.039
497.452,2.974
497.718,2.925
497.983,2.866
498.248,2.807
498.513,2.738
498.779,2.687
499.044,2.640
499.310,2.593
499.575,2.538
499.841,2.493
500.106,2.451
500.372,2.411
500.637,2.372
500.903,2.350
501.168,2.326
501.434,2.293
501.700,2.243
501.966,2.202
502.231,2.168
502.497,2.139
502.763,2.102
503.029,2.069
503.295,2.042
503.561,2.024
503.827,2.006
504.093,1.991
504.359,1.972
504.625,1.952
504.891,1.926
505.157,1.903
505.423,1.873
505.690,1.843
505.956,1.816
506.222,1.802
506.489,1.799
506.755,1.799
507.021,1.795
507.288,1.789
507.554,1.773
507.821,1.754
508.087,1.731
508.354,1.722
508.621,1.715
508.887,1.705
509.154,1.689
509.421,1.675
509.687,1.660
509.954,1.645
510.221,1.629
510.488,1.620
510.755,1.616
511.022,1.613
511.289,1.602
511.556,1.588
511.823,1.572
512.090,1.570
512.357,1.564
512.624,1.561
512.891,1.550
513.159,1.537
513.426,1.522
513.693,1.513
513.960,1.510
514.228,1.505
514.495,1.498
514.763,1.490
515.030,1.481
515.298,1.469
515.565,1.463
515.833,1.456
516.100,1.452
516.368,1.450
516.636,1.448
516.904,1.446
517.171,1.437
517.439,1.431
517.707,1.423
517.975,1.419
518.243,1.416
518.511,1.413
518.779,1.401
519.047,1.394
519.315,1.388
519.583,1.388
519.851,1.381
520.119,1.379
520.387,1.379
520.656,1.379
520.924,1.376
521.192,1.376
521.461,1.378
521.729,1.382
521.997,1.382
522.266,1.377
522.534,1.370
522.803,1.367
523.071,1.365
523.340,1.358
523.609,1.348
523.877,1.343
524.146,1.343
524.415,1.345
524.684,1.342
524.952,1.333
525.221,1.328
525.490,1.331
525.759,1.339
526.028,1.340
526.297,1.332
526.566,1.326
526.835,1.324
527.104,1.327
527.373,1.330
527.642,1.328
527.912,1.318
528.181,1.306
528.450,1.302
528.719,1.308
528.989,1.320
529.258,1.328
529.528,1.329
529.797,1.325
530.067,1.322
530.336,1.320
530.606,1.315
530.875,1.307
531.145,1.302
531.414,1.301
531.684,1.303
531.954,1.303
532.224,1.300
532.493,1.293
532.763,1.287
533.033,1.286
533.303,1.292
533.573,1.298
533.843,1.298
534.113,1.296
534.383,1.288
534.653,1.286
534.923,1.285
535.193,1.290
535.463,1.297
535.733,1.303
536.004,1.307
536.274,1.307
536.544,1.303
536.814,1.296
537.085,1.290
537.355,1.291
537.626,1.299
537.896,1.307
538.166,1.308
538.437,1.302
538.707,1.295
538.978,1.291
539.249,1.295
539.519,1.297
539.790,1.295
540.061,1.294
540.331,1.299
540.602,1.312
540.873,1.321
541.144,1.324
541.414,1.322
541.685,1.317
541.956,1.312
542.227,1.309
542.498,1.302
542.769,1.296
543.040,1.295
543.311,1.301
543.582,1.311
543.853,1.317
544.124,1.324
544.396,1.329
544.667,1.334
544.938,1.329
545.209,1.313
545.480,1.298
545.752,1.292
546.023,1.295
546.294,1.290
546.566,1.283
546.837,1.274
547.109,1.273
547.380,1.271
547.652,1.271
547.923,1.269
548.195,1.272
548.466,1.278
548.738,1.286
549.009,1.285
549.281,1.279
549.553,1.270
549.824,1.261
550.096,1.254
550.368,1.251
550.640,1.253
550.911,1.256
551.183,1.267
551.455,1.284
551.727,1.295
551.999,1.290
552.271,1.278
552.543,1.266
552.815,1.262
553.087,1.265
553.359,1.272
553.631,1.277
553.903,1.276
554.175,1.279
554.447,1.281
554.719,1.284
554.991,1.282
555.263,1.280
555.535,1.277
555.808,1.270
556.080,1.262
556.352,1.256
556.624,1.254
556.897,1.253
557.169,1.251
557.441,1.246
557.714,1.241
557.986,1.237
558.258,1.237
558.531,1.243
558.803,1.251
559.076,1.260
559.348,1.259
559.621,1.256
559.893,1.254
560.166,1.256
560.438,1.255
560.711,1.251
560.983,1.248
561.256,1.250
561.528,1.254
561.801,1.257
562.074,1.262
562.346,1.268
562.619,1.272
562.892,1.272
563.164,1.267
563.437,1.263
563.710,1.260
563.983,1.254
564.255,1.248
564.528,1.250
564.801,1.257
565.074,1.261
565.346,1.258
565.619,1.257
565.892,1.262
566.165,1.263
566.438,1.255
566.711,1.243
566.984,1.241
567.257,1.243
567.529,1.249
567.802,1.256
568.075,1.263
568.348,1.263
568.621,1.262
568.894,1.262
569.167,1.263
569.440,1.256
569.713,1.247
569.986,1.243
570.259,1.244
570.532,1.247
570.805,1.246
571.078,1.245
571.351,1.248
571.625,1.251
571.898,1.249
572.171,1.242
572.444,1.238
572.717,1.245
572.990,1.252
573.263,1.251
573.536,1.239
573.809,1.225
574.083,1.219
574.356,1.224
574.629,1.237
574.902,1.246
575.175,1.245
575.448,1.234
575.721,1.228
575.995,1.225
576.268,1.225
576.541,1.228
576.814,1.234
577.087,1.244
577.361,1.248
577.634,1.249
577.907,1.240
578.180,1.226
578.453,1.218
578.727,1.221
579.000,1.227
579.273,1.235
579.546,1.242
579.820,1.251
580.093,1.251
580.366,1.244
580.639,1.235
580.913,1.231
581.186,1.231
581.459,1.231
581.732,1.227
582.005,1.222
582.279,1.219
582.552,1.221
582.825,1.222
583.098,1.224
583.372,1.224
583.645,1.228
583.918,1.233
584.191,1.237
584.464,1.237
584.738,1.237
585.011,1.236
585.284,1.237
585.557,1.234
585.831,1.232
586.104,1.238
586.377,1.252
586.650,1.262
586.923,1.262
587.196,1.256
587.470,1.248
587.743,1.242
588.016,1.234
588.289,1.233
588.562,1.236
588.835,1.238
589.109,1.233
589.382,1.225
589.655,1.220
589.928,1.219
590.201,1.218
590.474,1.226
590.747,1.238
591.020,1.247
591.293,1.247
591.567,1.242
591.840,1.234
592.113,1.227
592.386,1.219
592.659,1.214
592.932,1.217
593.205,1.224
593.478,1.228
593.751,1.226
594.024,1.223
594.297,1.219
594.570,1.219
594.843,1.222
595.116,1.228
595.389,1.229
595.662,1.227
595.934,1.228
596.207,1.236
596.480,1.245
596.753,1.246
597.026,1.238
597.299,1.230
597.572,1.227
597.844,1.222
598.117,1.215
598.390,1.210
598.663,1.210
598.936,1.214
599.208,1.218
599.481,1.223
599.754,1.226
600.026,1.220
600.299,1.213
600.572,1.206
600.844,1.203
601.117,1.199
601.390,1.195
601.662,1.194
601.935,1.191
602.207,1.191
602.480,1.194
602.752,1.198
603.025,1.198
603.297,1.200
603.570,1.208
603.842,1.220
604.115,1.228
604.387,1.230
604.660,1.223
604.932,1.219
605.204,1.221
605.477,1.230
605.749,1.239
606.021,1.245
606.294,1.246
606.566,1.239
606.838,1.232
607.110,1.228
607.383,1.233
607.655,1.241
607.927,1.249
608.199,1.256
608.471,1.258
608.743,1.255
609.015,1.250
609.287,1.249
609.559,1.250
609.831,1.250
610.103,1.247
610.375,1.241
610.647,1.233
610.919,1.228
611.191,1.227
611.463,1.233
611.735,1.234
612.007,1.231
612.278,1.225
612.550,1.224
612.822,1.228
613.094,1.234
613.365,1.240
613.637,1.242
613.909,1.242
614.180,1.238
614.452,1.231
614.723,1.223
614.995,1.214
615.266,1.213
615.538,1.221
615.809,1.230
616.081,1.228
616.352,1.222
616.623,1.218
616.895,1.219
617.166,1.218
617.437,1.213
617.709,1.209
617.980,1.209
618.251,1.214
618.522,1.221
618.793,1.234
619.065,1.245
619.336,1.243
619.607,1.233
619.878,1.224
620.149,1.226
620.420,1.227
620.691,1.226
620.962,1.229
621.232,1.236
621.503,1.236
621.774,1.228
622.045,1.221
622.316,1.225
622.586,1.235
622.857,1.245
623.128,1.246
623.398,1.243
623.669,1.237
623.940,1.228
624.210,1.219
624.481,1.217
624.751,1.218
625.021,1.217
625.292,1.212
625.562,1.212
625.833,1.211
626.103,1.209
626.373,1.204
626.643,1.205
626.914,1.209
627.184,1.213
627.454,1.215
627.724,1.217
627.994,1.217
628.264,1.216
628.534,1.212
628.804,1.211
629.074,1.213
629.344,1.217
629.614,1.218
629.884,1.214
630.154,1.210
630.424,1.205
630.693,1.195
630.963,1.183
631.233,1.174
631.502,1.177
631.772,1.188
632.041,1.201
632.311,1.209
632.581,1.213
632.850,1.210
633.119,1.199
633.389,1.187
633.658,1.181
633.928,1.185
634.197,1.192
634.466,1.204
634.735,1.214
635.004,1.215
635.274,1.213
635.543,1.206
635.812,1.201
636.081,1.197
636.350,1.198
636.619,1.201
636.888,1.205
637.157,1.210
637.426,1.215
637.694,1.218
637.963,1.216
638.232,1.213
638.501,1.207
638.769,1.204
639.038,1.202
639.307,1.208
639.575,1.212
639.844,1.209
640.112,1.205
640.381,1.200
640.649,1.201
640.917,1.200
641.186,1.199
641.454,1.198
641.722,1.199
641.991,1.200
642.259,1.198
642.527,1.197
642.795,1.197
643.063,1.193
643.331,1.191
643.599,1.190
643.867,1.192
644.135,1.193
644.403,1.195
644.671,1.199
644.939,1.205
645.206,1.210
645.474,1.215
645.742,1.210
646.009,1.198
646.277,1.190
646.545,1.190
646.812,1.199
647.080,1.205
647.347,1.208
647.615,1.207
647.882,1.202
648.149,1.197
648.417,1.192
648.684,1.194
648.951,1.200
649.219,1.208
649.486,1.211
649.753,1.205
650.020,1.194
650.287,1.186
650.554,1.183
650.821,1.183
651.088,1.183
651.355,1.189
651.622,1.195
651.889,1.198
652.155,1.196
652.422,1.196
652.689,1.200
652.956,1.206
653.222,1.214
653.489,1.223
653.755,1.228
654.022,1.224
654.288,1.214
654.555,1.208
654.821,1.209
655.088,1.216
655.354,1.224
655.620,1.229
655.887,1.228
656.153,1.223
656.419,1.215
656.685,1.208
656.951,1.203
657.217,1.200
657.483,1.195
657.749,1.193
658.015,1.195
658.281,1.200
658.547,1.198
658.813,1.190
659.079,1.182
659.345,1.178
659.610,1.177
659.876,1.180
660.142,1.183
660.407,1.187
660.673,1.191
660.939,1.196
661.204,1.197
661.470,1.194
661.735,1.189
662.000,1.189
662.266,1.190
662.531,1.191
662.796,1.190
663.062,1.189
663.327,1.188
663.592,1.189
663.857,1.189
664.122,1.189
664.388,1.187
664.653,1.189
664.918,1.192
665.183,1.195
665.448,1.199
665.712,1.202
665.977,1.203
666.242,1.198
666.507,1.186
666.772,1.177
667.037,1.174
667.301,1.178
667.566,1.181
667.831,1.182
668.095,1.182
668.360,1.182
668.624,1.179
668.889,1.182
669.153,1.180
669.418,1.179
669.682,1.177
669.946,1.181
670.211,1.188
670.475,1.194
670.739,1.201
671.004,1.214
671.268,1.238
671.532,1.256
671.796,1.250
672.060,1.232
672.324,1.216
672.588,1.218
672.852,1.227
673.116,1.254
673.380,1.276
673.644,1.263
673.908,1.228
674.172,1.198
674.436,1.196
674.700,1.197
674.963,1.199
675.227,1.202
675.491,1.201
675.754,1.196
676.018,1.192
676.282,1.195
676.545,1.197
676.809,1.195
677.072,1.191
677.336,1.192
677.599,1.194
677.863,1.192
678.126,1.189
678.389,1.191
678.653,1.196
678.916,1.195
679.179,1.187
679.442,1.182
679.706,1.184
679.969,1.187
680.232,1.194
680.495,1.203
680.758,1.210
681.021,1.206
681.284,1.197
681.547,1.190
681.810,1.191
682.073,1.198
682.336,1.202
682.599,1.202
682.862,1.201
683.125,1.203
683.388,1.205
683.651,1.204
683.913,1.198
684.176,1.186
684.439,1.173
684.702,1.163
684.964,1.163
685.227,1.169
685.490,1.182
685.752,1.193
686.015,1.198
686.277,1.195
686.540,1.188
686.802,1.183
687.065,1.185
687.327,1.188
687.590,1.189
687.852,1.181
688.115,1.172
688.377,1.169
688.639,1.171
688.902,1.177
689.164,1.185
689.426,1.193
689.689,1.195
689.951,1.192
690.213,1.189
690.475,1.193
690.737,1.196
691.000,1.195
691.262,1.194
691.524,1.197
691.786,1.206
692.048,1.212
692.310,1.210
692.572,1.199
692.834,1.187
693.096,1.185
693.358,1.191
693.620,1.201
693.882,1.207
694.144,1.205
694.406,1.200
694.668,1.193
694.930,1.186
695.192,1.180
695.453,1.179
695.715,1.184
695.977,1.182
696.239,1.176
696.501,1.172
696.762,1.177
697.024,1.179
697.286,1.178
697.548,1.177
697.809,1.178
698.071,1.178
698.333,1.178
698.594,1.179
698.856,1.186
699.118,1.188
699.379,1.193
699.641,1.196
699.902,1.200
700.164,1.197
700.426,1.189
700.687,1.182
700.949,1.179
701.210,1.176
701.472,1.170
701.733,1.165
701.995,1.168
702.256,1.177
702.518,1.184
702.779,1.186
703.041,1.195
703.302,1.203
703.563,1.202
703.825,1.190
704.086,1.179
704.348,1.176
704.609,1.180
704.871,1.187
705.132,1.193
705.393,1.192
705.655,1.190
705.916,1.191
706.177,1.193
706.439,1.192
706.700,1.189
706.961,1.187
707.223,1.181
707.484,1.166
707.745,1.150
708.007,1.136
708.268,1.128
708.529,1.117
708.790,1.107
709.052,1.103
709.313,1.103
709.574,1.105
709.835,1.107
710.097,1.100
710.358,1.088
710.619,1.075
710.881,1.072
711.142,1.072
711.403,1.070
711.664,1.065
711.926,1.060
712.187,1.062
712.448,1.066
712.709,1.075
712.970,1.082
713.232,1.085
713.493,1.085
713.754,1.084
714.015,1.088
714.277,1.094
714.538,1.102
714.799,1.113
715.060,1.116
715.322,1.114
715.583,1.107
715.844,1.102
716.105,1.096
716.367,1.089
716.628,1.086
716.889,1.083
717.150,1.077
717.411,1.070
717.673,1.069
717.934,1.072
718.195,1.076
718.457,1.070
718.718,1.062
718.979,1.058
719.240,1.062
719.502,1.072
719.763,1.081
720.024,1.084
720.286,1.081
720.547,1.075
720.808,1.072
721.069,1.070
721.331,1.075
721.592,1.082
721.853,1.086
722.115,1.087
722.376,1.087
722.638,1.087
722.899,1.084
723.160,1.076
723.422,1.067
723.683,1.064
723.944,1.066
724.206,1.069
724.467,1.066
724.729,1.063
724.990,1.071
725.252,1.079
725.513,1.078
725.775,1.068
726.036,1.060
726.298,1.060
726.559,1.062
726.821,1.063
727.082,1.064
727.344,1.063
727.605,1.063
727.867,1.062
728.128,1.063
728.390,1.064
728.652,1.072
728.913,1.083
729.175,1.091
729.436,1.092
729.698,1.092
729.960,1.089
730.221,1.083
730.483,1.073
730.745,1.069
731.007,1.070
731.268,1.071
731.530,1.067
731.792,1.065
732.054,1.066
732.315,1.071
732.577,1.071
732.839,1.069
733.101,1.066
733.363,1.065
733.625,1.065
733.887,1.064
734.149,1.066
734.411,1.071
734.673,1.074
734.935,1.073
735.197,1.069
735.459,1.070
735.721,1.073
735.983,1.074
736.245,1.073
736.507,1.073
736.769,1.075
737.031,1.076
737.293,1.069
737.555,1.060
737.818,1.054
738.080,1.051
738.342,1.048
738.604,1.045
738.867,1.045
739.129,1.047
739.391,1.051
739.654,1.054
739.916,1.058
740.178,1.064
740.441,1.071
740.703,1.076
740.966,1.074
741.228,1.070
741.491,1.067
741.753,1.066
742.016,1.063
742.278,1.062
742.541,1.062
742.804,1.064
743.066,1.069
743.329,1.071
743.592,1.071
743.854,1.070
744.117,1.074
744.380,1.080
744.643,1.078
744.905,1.072
745.168,1.063
745.431,1.058
745.694,1.052
745.957,1.048
746.220,1.046
746.483,1.048
746.746,1.050
747.009,1.059
747.272,1.071
747.535,1.081
747.798,1.081
748.061,1.072
