Wavelength (nm),Intensity Source #20,,Untitled.sp,,,Source #20,
379.792,1.457,,2018-06-12 12:01:38,,Integration Time,608 ms,
380.000,1.430,,Analyze Light,,Number of Scans to Average,25,
380.209,1.406,,,,Smoothing,1,
380.418,1.430
380.627,1.475
380.837,1.522
381.048,1.537
381.259,1.524
381.471,1.500
381.683,1.498
381.896,1.510
382.110,1.511
382.324,1.530
382.538,1.570
382.753,1.598
382.969,1.552
383.185,1.485
383.402,1.436
383.619,1.447
383.837,1.487
384.055,1.548
384.274,1.596
384.493,1.599
384.712,1.574
384.932,1.553
385.153,1.550
385.374,1.551
385.596,1.558
385.818,1.587
386.040,1.621
386.263,1.640
386.487,1.626
386.710,1.590
386.935,1.538
387.159,1.503
387.385,1.474
387.610,1.458
387.836,1.445
388.063,1.447
388.289,1.459
388.517,1.463
388.744,1.459
388.972,1.476
389.201,1.486
389.430,1.492
389.659,1.482
389.889,1.490
390.119,1.500
390.349,1.504
390.580,1.507
390.811,1.502
391.042,1.497
391.274,1.497
391.507,1.496
391.739,1.479
391.972,1.447
392.205,1.442
392.439,1.460
392.673,1.476
392.907,1.486
393.142,1.498
393.377,1.516
393.612,1.532
393.848,1.531
394.084,1.518
394.320,1.496
394.557,1.499
394.794,1.507
395.031,1.535
395.269,1.551
395.507,1.564
395.745,1.548
395.983,1.533
396.222,1.541
396.461,1.579
396.700,1.626
396.940,1.644
397.180,1.634
397.420,1.593
397.660,1.551
397.901,1.515
398.142,1.506
398.383,1.483
398.625,1.464
398.866,1.471
399.108,1.541
399.351,1.627
399.593,1.639
399.836,1.601
400.079,1.536
400.322,1.493
400.566,1.457
400.809,1.437
401.053,1.440
401.298,1.452
401.542,1.481
401.787,1.518
402.031,1.550
402.277,1.558
402.522,1.551
402.767,1.548
403.013,1.523
403.259,1.506
403.505,1.488
403.752,1.481
403.998,1.478
404.245,1.520
404.492,1.576
404.739,1.612
404.986,1.616
405.234,1.616
405.482,1.613
405.730,1.596
405.978,1.586
406.226,1.549
406.475,1.498
406.723,1.452
406.972,1.456
407.221,1.478
407.470,1.499
407.720,1.498
407.969,1.476
408.219,1.471
408.469,1.495
408.719,1.520
408.969,1.516
409.219,1.510
409.470,1.522
409.720,1.542
409.971,1.559
410.222,1.581
410.473,1.580
410.724,1.556
410.976,1.551
411.227,1.565
411.479,1.578
411.731,1.559
411.983,1.528
412.235,1.502
412.487,1.484
412.740,1.488
412.992,1.498
413.245,1.507
413.497,1.502
413.750,1.496
414.003,1.476
414.257,1.450
414.510,1.437
414.763,1.445
415.017,1.459
415.270,1.466
415.524,1.468
415.778,1.468
416.032,1.477
416.286,1.503
416.540,1.527
416.794,1.549
417.049,1.546
417.303,1.551
417.558,1.563
417.812,1.569
418.067,1.567
418.322,1.557
418.577,1.551
418.832,1.534
419.088,1.501
419.343,1.483
419.598,1.465
419.854,1.470
420.109,1.496
420.365,1.547
420.621,1.580
420.876,1.596
421.132,1.587
421.388,1.563
421.645,1.537
421.901,1.531
422.157,1.539
422.413,1.543
422.670,1.530
422.926,1.507
423.183,1.469
423.439,1.464
423.696,1.505
423.953,1.594
424.210,1.662
424.467,1.660
424.724,1.616
424.981,1.546
425.238,1.515
425.495,1.519
425.753,1.542
426.010,1.550
426.267,1.537
426.525,1.550
426.782,1.569
427.040,1.586
427.298,1.599
427.555,1.613
427.813,1.616
428.071,1.611
428.329,1.605
428.587,1.593
428.845,1.586
429.103,1.574
429.361,1.557
429.619,1.525
429.878,1.510
430.136,1.518
430.394,1.531
430.653,1.574
430.911,1.637
431.170,1.700
431.428,1.705
431.687,1.674
431.946,1.629
432.204,1.607
432.463,1.610
432.722,1.605
432.981,1.590
433.240,1.578
433.499,1.593
433.758,1.627
434.017,1.626
434.276,1.593
434.535,1.526
434.794,1.473
435.053,1.456
435.312,1.463
435.572,1.468
435.831,1.470
436.090,1.492
436.350,1.522
436.609,1.541
436.869,1.524
437.128,1.495
437.388,1.463
437.647,1.460
437.907,1.475
438.166,1.484
438.426,1.470
438.686,1.453
438.946,1.447
439.205,1.457
439.465,1.474
439.725,1.517
439.985,1.551
440.245,1.551
440.505,1.535
440.765,1.519
441.025,1.509
441.285,1.520
441.545,1.545
441.805,1.568
442.065,1.533
442.325,1.479
442.585,1.446
442.846,1.445
443.106,1.477
443.366,1.512
443.626,1.540
443.887,1.544
444.147,1.516
444.407,1.497
444.668,1.475
444.928,1.468
445.189,1.473
445.449,1.485
445.710,1.495
445.970,1.493
446.231,1.493
446.491,1.512
446.752,1.508
447.012,1.514
447.273,1.543
447.534,1.585
447.794,1.570
448.055,1.511
448.316,1.470
448.577,1.472
448.837,1.494
449.098,1.531
449.359,1.563
449.620,1.566
449.881,1.536
450.142,1.496
450.403,1.494
450.664,1.510
450.924,1.519
451.185,1.514
451.446,1.516
451.707,1.533
451.969,1.565
452.230,1.586
452.491,1.611
452.752,1.602
453.013,1.582
453.274,1.563
453.535,1.557
453.796,1.529
454.058,1.489
454.319,1.466
454.580,1.493
454.841,1.535
455.103,1.529
455.364,1.493
455.625,1.461
455.887,1.463
456.148,1.483
456.409,1.518
456.671,1.554
456.932,1.574
457.194,1.566
457.455,1.559
457.716,1.558
457.978,1.574
458.239,1.581
458.501,1.580
458.763,1.548
459.024,1.515
459.286,1.501
459.547,1.504
459.809,1.496
460.071,1.509
460.332,1.543
460.594,1.585
460.856,1.590
461.117,1.560
461.379,1.558
461.641,1.569
461.903,1.588
462.164,1.584
462.426,1.583
462.688,1.582
462.950,1.574
463.212,1.575
463.474,1.550
463.736,1.533
463.998,1.538
464.260,1.588
464.522,1.648
464.784,1.654
465.046,1.602
465.308,1.549
465.570,1.533
465.832,1.561
466.094,1.590
466.356,1.621
466.618,1.646
466.880,1.633
467.142,1.585
467.405,1.553
467.667,1.568
467.929,1.613
468.191,1.656
468.454,1.677
468.716,1.698
468.978,1.699
469.241,1.668
469.503,1.633
469.765,1.610
470.028,1.618
470.290,1.589
470.552,1.537
470.815,1.488
471.077,1.481
471.340,1.507
471.602,1.517
471.865,1.493
472.128,1.449
472.390,1.425
472.653,1.425
472.915,1.433
473.178,1.440
473.441,1.463
473.703,1.502
473.966,1.559
474.229,1.603
474.492,1.613
474.755,1.571
475.017,1.541
475.280,1.531
475.543,1.554
475.806,1.536
476.069,1.503
476.332,1.474
476.595,1.484
476.858,1.492
477.121,1.477
477.384,1.452
477.647,1.455
477.910,1.479
478.173,1.495
478.436,1.488
478.699,1.476
478.962,1.471
479.226,1.495
479.489,1.516
479.752,1.547
480.015,1.576
480.279,1.620
480.542,1.651
480.805,1.648
481.069,1.617
481.332,1.585
481.595,1.572
481.859,1.596
482.122,1.611
482.386,1.606
482.649,1.580
482.913,1.549
483.177,1.510
483.440,1.456
483.704,1.422
483.967,1.437
484.231,1.484
484.495,1.541
484.759,1.577
485.022,1.584
485.286,1.582
485.550,1.570
485.814,1.528
486.078,1.474
486.342,1.447
486.606,1.484
486.869,1.529
487.133,1.566
487.397,1.602
487.662,1.628
487.926,1.628
488.190,1.616
488.454,1.610
488.718,1.613
488.982,1.592
489.246,1.580
489.511,1.569
489.775,1.569
490.039,1.574
490.304,1.565
490.568,1.545
490.832,1.533
491.097,1.552
491.361,1.580
491.626,1.593
491.890,1.587
492.155,1.591
492.419,1.598
492.684,1.592
492.949,1.587
493.213,1.602
493.478,1.644
493.743,1.652
494.008,1.598
494.272,1.537
494.537,1.522
494.802,1.552
495.067,1.596
495.332,1.632
495.597,1.659
495.862,1.662
496.127,1.656
496.392,1.634
496.657,1.590
496.922,1.551
497.187,1.539
497.452,1.565
497.718,1.608
497.983,1.634
498.248,1.633
498.513,1.608
498.779,1.619
499.044,1.649
499.310,1.652
499.575,1.619
499.841,1.591
500.106,1.587
500.372,1.571
500.637,1.579
500.903,1.621
501.168,1.668
501.434,1.662
501.700,1.609
501.966,1.581
502.231,1.559
502.497,1.550
502.763,1.516
503.029,1.493
503.295,1.485
503.561,1.486
503.827,1.509
504.093,1.532
504.359,1.557
504.625,1.566
504.891,1.555
505.157,1.550
505.423,1.515
505.690,1.476
505.956,1.442
506.222,1.463
506.489,1.536
506.755,1.618
507.021,1.668
507.288,1.679
507.554,1.659
507.821,1.643
508.087,1.637
508.354,1.667
508.621,1.681
508.887,1.669
509.154,1.645
509.421,1.635
509.687,1.616
509.954,1.589
510.221,1.569
510.488,1.595
510.755,1.631
511.022,1.662
511.289,1.639
511.556,1.609
511.823,1.594
512.090,1.631
512.357,1.648
512.624,1.654
512.891,1.635
513.159,1.621
513.426,1.611
513.693,1.621
513.960,1.642
514.228,1.644
514.495,1.636
514.763,1.622
515.030,1.613
515.298,1.589
515.565,1.587
515.833,1.591
516.100,1.599
516.368,1.599
516.636,1.597
516.904,1.609
517.171,1.601
517.439,1.599
517.707,1.580
517.975,1.578
518.243,1.586
518.511,1.590
518.779,1.560
519.047,1.553
519.315,1.556
519.583,1.553
519.851,1.508
520.119,1.474
520.387,1.468
520.656,1.481
520.924,1.505
521.192,1.533
521.461,1.561
521.729,1.582
521.997,1.603
522.266,1.608
522.534,1.602
522.803,1.601
523.071,1.594
523.340,1.562
523.609,1.518
523.877,1.491
524.146,1.495
524.415,1.519
524.684,1.543
524.952,1.541
525.221,1.534
525.490,1.548
525.759,1.581
526.028,1.594
526.297,1.556
526.566,1.518
526.835,1.491
527.104,1.500
527.373,1.523
527.642,1.535
527.912,1.519
528.181,1.494
528.450,1.489
528.719,1.522
528.989,1.577
529.258,1.627
529.528,1.641
529.797,1.621
530.067,1.610
530.336,1.600
530.606,1.586
530.875,1.554
531.145,1.537
531.414,1.545
531.684,1.574
531.954,1.586
532.224,1.569
532.493,1.513
532.763,1.479
533.033,1.478
533.303,1.514
533.573,1.544
533.843,1.529
534.113,1.508
534.383,1.476
534.653,1.483
534.923,1.503
535.193,1.535
535.463,1.577
535.733,1.609
536.004,1.639
536.274,1.650
536.544,1.629
536.814,1.590
537.085,1.549
537.355,1.557
537.626,1.603
537.896,1.648
538.166,1.667
538.437,1.663
538.707,1.654
538.978,1.660
539.249,1.694
539.519,1.724
539.790,1.722
540.061,1.722
540.331,1.759
540.602,1.831
540.873,1.878
541.144,1.896
541.414,1.884
541.685,1.871
541.956,1.853
542.227,1.840
542.498,1.817
542.769,1.804
543.040,1.818
543.311,1.865
543.582,1.923
543.853,1.963
544.124,1.992
544.396,2.015
544.667,2.029
544.938,2.026
545.209,1.955
545.480,1.902
545.752,1.864
546.023,1.884
546.294,1.864
546.566,1.821
546.837,1.764
547.109,1.734
547.380,1.715
547.652,1.701
547.923,1.696
548.195,1.720
548.466,1.771
548.738,1.825
549.009,1.832
549.281,1.806
549.553,1.748
549.824,1.682
550.096,1.641
550.368,1.635
550.640,1.657
550.911,1.688
551.183,1.738
551.455,1.809
551.727,1.861
551.999,1.854
552.271,1.806
552.543,1.761
552.815,1.739
553.087,1.761
553.359,1.795
553.631,1.826
553.903,1.835
554.175,1.852
554.447,1.882
554.719,1.903
554.991,1.909
555.263,1.906
555.535,1.897
555.808,1.885
556.080,1.870
556.352,1.869
556.624,1.877
556.897,1.890
557.169,1.906
557.441,1.914
557.714,1.911
557.986,1.922
558.258,1.927
558.531,1.967
558.803,2.005
559.076,2.050
559.348,2.063
559.621,2.063
559.893,2.087
560.166,2.124
560.438,2.156
560.711,2.167
560.983,2.189
561.256,2.234
561.528,2.297
561.801,2.366
562.074,2.437
562.346,2.512
562.619,2.581
562.892,2.621
563.164,2.641
563.437,2.678
563.710,2.725
563.983,2.756
564.255,2.774
564.528,2.841
564.801,2.953
565.074,3.064
565.346,3.114
565.619,3.166
565.892,3.247
566.165,3.338
566.438,3.388
566.711,3.424
566.984,3.483
567.257,3.568
567.529,3.668
567.802,3.797
568.075,3.921
568.348,4.004
568.621,4.057
568.894,4.092
569.167,4.128
569.440,4.148
569.713,4.133
569.986,4.133
570.259,4.114
570.532,4.132
570.805,4.132
571.078,4.129
571.351,4.100
571.625,4.055
571.898,3.969
572.171,3.859
572.444,3.741
572.717,3.657
572.990,3.587
573.263,3.475
573.536,3.318
573.809,3.131
574.083,2.971
574.356,2.862
574.629,2.811
574.902,2.747
575.175,2.650
575.448,2.516
575.721,2.407
575.995,2.330
576.268,2.273
576.541,2.243
576.814,2.222
577.087,2.205
577.361,2.174
577.634,2.128
577.907,2.056
578.180,1.976
578.453,1.923
578.727,1.906
579.000,1.900
579.273,1.901
579.546,1.921
579.820,1.955
580.093,1.954
580.366,1.913
580.639,1.852
580.913,1.820
581.186,1.805
581.459,1.800
581.732,1.768
582.005,1.742
582.279,1.715
582.552,1.712
582.825,1.712
583.098,1.719
583.372,1.731
583.645,1.739
583.918,1.749
584.191,1.746
584.464,1.734
584.738,1.715
585.011,1.702
585.284,1.688
585.557,1.673
585.831,1.671
586.104,1.706
586.377,1.766
586.650,1.803
586.923,1.797
587.196,1.765
587.470,1.715
587.743,1.675
588.016,1.641
588.289,1.641
588.562,1.663
588.835,1.668
589.109,1.645
589.382,1.603
589.655,1.567
589.928,1.543
590.201,1.534
590.474,1.563
590.747,1.608
591.020,1.652
591.293,1.666
591.567,1.666
591.840,1.641
592.113,1.612
592.386,1.563
592.659,1.524
592.932,1.513
593.205,1.544
593.478,1.566
593.751,1.558
594.024,1.537
594.297,1.509
594.570,1.500
594.843,1.522
595.116,1.562
595.389,1.580
595.662,1.558
595.934,1.550
596.207,1.570
596.480,1.611
596.753,1.644
597.026,1.647
597.299,1.640
597.572,1.628
597.844,1.607
598.117,1.566
598.390,1.531
598.663,1.517
598.936,1.535
599.208,1.556
599.481,1.575
599.754,1.580
600.026,1.538
600.299,1.489
600.572,1.454
600.844,1.449
601.117,1.438
601.390,1.433
601.662,1.436
601.935,1.440
602.207,1.443
602.480,1.460
602.752,1.468
603.025,1.456
603.297,1.445
603.570,1.477
603.842,1.539
604.115,1.584
604.387,1.605
604.660,1.584
604.932,1.565
605.204,1.567
605.477,1.599
605.749,1.644
606.021,1.671
606.294,1.680
606.566,1.654
606.838,1.639
607.110,1.636
607.383,1.658
607.655,1.673
607.927,1.703
608.199,1.735
608.471,1.760
608.743,1.747
609.015,1.726
609.287,1.706
609.559,1.706
609.831,1.716
610.103,1.724
610.375,1.720
610.647,1.698
610.919,1.667
611.191,1.653
611.463,1.650
611.735,1.647
612.007,1.622
612.278,1.597
612.550,1.582
612.822,1.598
613.094,1.617
613.365,1.624
613.637,1.631
613.909,1.629
614.180,1.635
614.452,1.626
614.723,1.607
614.995,1.577
615.266,1.563
615.538,1.583
615.809,1.613
616.081,1.604
616.352,1.567
616.623,1.536
616.895,1.523
617.166,1.509
617.437,1.496
617.709,1.506
617.980,1.538
618.251,1.579
618.522,1.609
618.793,1.653
619.065,1.701
619.336,1.693
619.607,1.644
619.878,1.607
620.149,1.621
620.420,1.632
620.691,1.613
620.962,1.607
621.232,1.622
621.503,1.617
621.774,1.596
622.045,1.579
622.316,1.606
622.586,1.652
622.857,1.698
623.128,1.703
623.398,1.677
623.669,1.638
623.940,1.595
624.210,1.556
624.481,1.557
624.751,1.574
625.021,1.580
625.292,1.558
625.562,1.551
625.833,1.547
626.103,1.530
626.373,1.496
626.643,1.493
626.914,1.513
627.184,1.550
627.454,1.566
627.724,1.567
627.994,1.566
628.264,1.564
628.534,1.542
628.804,1.521
629.074,1.528
629.344,1.562
629.614,1.580
629.884,1.552
630.154,1.506
630.424,1.465
630.693,1.431
630.963,1.396
631.233,1.367
631.502,1.378
631.772,1.439
632.041,1.506
632.311,1.545
632.581,1.551
632.850,1.537
633.119,1.494
633.389,1.443
633.658,1.413
633.928,1.433
634.197,1.482
634.466,1.542
634.735,1.582
635.004,1.573
635.274,1.539
635.543,1.505
635.812,1.499
636.081,1.506
636.350,1.509
636.619,1.518
636.888,1.524
637.157,1.539
637.426,1.563
637.694,1.576
637.963,1.563
638.232,1.537
638.501,1.506
638.769,1.512
639.038,1.536
639.307,1.585
639.575,1.617
639.844,1.604
640.112,1.564
640.381,1.508
640.649,1.493
640.917,1.509
641.186,1.527
641.454,1.546
641.722,1.539
641.991,1.541
642.259,1.507
642.527,1.491
642.795,1.478
643.063,1.461
643.331,1.445
643.599,1.433
643.867,1.459
644.135,1.483
644.403,1.521
644.671,1.537
644.939,1.564
645.206,1.577
645.474,1.597
645.742,1.576
646.009,1.523
646.277,1.490
646.545,1.495
646.812,1.554
647.080,1.607
647.347,1.637
647.615,1.621
647.882,1.559
648.149,1.498
648.417,1.466
648.684,1.483
648.951,1.529
649.219,1.564
649.486,1.571
649.753,1.547
650.020,1.511
650.287,1.483
650.554,1.472
650.821,1.475
651.088,1.483
651.355,1.515
651.622,1.533
651.889,1.539
652.155,1.506
652.422,1.498
652.689,1.524
652.956,1.558
653.222,1.594
653.489,1.638
653.755,1.669
654.022,1.653
654.288,1.594
654.555,1.551
654.821,1.548
655.088,1.573
655.354,1.597
655.620,1.623
655.887,1.637
656.153,1.649
656.419,1.646
656.685,1.637
656.951,1.627
657.217,1.610
657.483,1.580
657.749,1.550
658.015,1.535
658.281,1.532
658.547,1.517
658.813,1.492
659.079,1.471
659.345,1.455
659.610,1.455
659.876,1.461
660.142,1.473
660.407,1.483
660.673,1.501
660.939,1.527
661.204,1.525
661.470,1.500
661.735,1.477
662.000,1.482
662.266,1.487
662.531,1.484
662.796,1.477
663.062,1.465
663.327,1.450
663.592,1.447
663.857,1.458
664.122,1.469
664.388,1.468
664.653,1.478
664.918,1.498
665.183,1.504
665.448,1.519
665.712,1.534
665.977,1.565
666.242,1.565
666.507,1.511
666.772,1.451
667.037,1.410
667.301,1.424
667.566,1.449
667.831,1.476
668.095,1.491
668.360,1.504
668.624,1.493
668.889,1.503
669.153,1.494
669.418,1.498
669.682,1.492
669.946,1.500
670.211,1.533
670.475,1.565
670.739,1.605
671.004,1.646
671.268,1.725
671.532,1.811
671.796,1.788
672.060,1.722
672.324,1.650
672.588,1.670
672.852,1.708
673.116,1.814
673.380,1.920
673.644,1.856
673.908,1.695
674.172,1.537
674.436,1.535
674.700,1.554
674.963,1.571
675.227,1.577
675.491,1.556
675.754,1.530
676.018,1.509
676.282,1.521
676.545,1.522
676.809,1.501
677.072,1.470
677.336,1.455
677.599,1.467
677.863,1.468
678.126,1.483
678.389,1.519
678.653,1.560
678.916,1.562
679.179,1.519
679.442,1.495
679.706,1.510
679.969,1.528
680.232,1.550
680.495,1.577
680.758,1.611
681.021,1.606
681.284,1.561
681.547,1.518
681.810,1.528
682.073,1.578
682.336,1.620
682.599,1.612
682.862,1.588
683.125,1.575
683.388,1.580
683.651,1.575
683.913,1.558
684.176,1.520
684.439,1.479
684.702,1.437
684.964,1.422
685.227,1.434
685.490,1.481
685.752,1.546
686.015,1.577
686.277,1.568
686.540,1.531
686.802,1.493
687.065,1.490
687.327,1.503
687.590,1.518
687.852,1.498
688.115,1.458
688.377,1.439
688.639,1.439
688.902,1.452
689.164,1.478
689.426,1.529
689.689,1.572
689.951,1.574
690.213,1.557
690.475,1.545
690.737,1.536
691.000,1.515
691.262,1.501
691.524,1.521
691.786,1.567
692.048,1.610
692.310,1.604
692.572,1.541
692.834,1.472
693.096,1.449
693.358,1.491
693.620,1.553
693.882,1.606
694.144,1.616
694.406,1.587
694.668,1.557
694.930,1.527
695.192,1.516
695.453,1.523
695.715,1.542
695.977,1.539
696.239,1.507
696.501,1.488
696.762,1.507
697.024,1.524
697.286,1.507
697.548,1.486
697.809,1.474
698.071,1.475
698.333,1.472
698.594,1.476
698.856,1.498
699.118,1.516
699.379,1.531
699.641,1.555
699.902,1.580
700.164,1.587
700.426,1.565
700.687,1.530
700.949,1.521
701.210,1.517
701.472,1.509
701.733,1.488
701.995,1.489
702.256,1.503
702.518,1.510
702.779,1.503
703.041,1.536
703.302,1.583
703.563,1.588
703.825,1.549
704.086,1.510
704.348,1.509
704.609,1.533
704.871,1.579
705.132,1.623
705.393,1.613
705.655,1.589
705.916,1.576
706.177,1.589
706.439,1.600
706.700,1.605
706.961,1.611
707.223,1.617
707.484,1.578
707.745,1.541
708.007,1.509
708.268,1.497
708.529,1.481
708.790,1.444
709.052,1.429
709.313,1.444
709.574,1.484
709.835,1.515
710.097,1.508
710.358,1.467
710.619,1.426
710.881,1.396
711.142,1.381
711.403,1.372
711.664,1.373
711.926,1.363
712.187,1.375
712.448,1.398
712.709,1.443
712.970,1.476
713.232,1.491
713.493,1.495
713.754,1.495
714.015,1.509
714.277,1.537
714.538,1.572
714.799,1.617
715.060,1.637
715.322,1.640
715.583,1.611
715.844,1.578
716.105,1.535
716.367,1.505
716.628,1.497
716.889,1.504
717.150,1.494
717.411,1.473
717.673,1.479
717.934,1.506
718.195,1.535
718.457,1.520
718.718,1.480
718.979,1.452
719.240,1.458
719.502,1.499
719.763,1.537
720.024,1.563
720.286,1.566
720.547,1.540
720.808,1.509
721.069,1.487
721.331,1.506
721.592,1.547
721.853,1.576
722.115,1.588
722.376,1.591
722.638,1.584
722.899,1.577
723.160,1.547
723.422,1.518
723.683,1.494
723.944,1.508
724.206,1.523
724.467,1.526
724.729,1.513
724.990,1.530
725.252,1.554
725.513,1.538
725.775,1.490
726.036,1.449
726.298,1.446
726.559,1.471
726.821,1.485
727.082,1.495
727.344,1.489
727.605,1.485
727.867,1.469
728.128,1.471
728.390,1.477
728.652,1.517
728.913,1.568
729.175,1.606
729.436,1.613
729.698,1.608
729.960,1.590
730.221,1.564
730.483,1.509
730.745,1.484
731.007,1.479
731.268,1.486
731.530,1.496
731.792,1.506
732.054,1.531
732.315,1.552
732.577,1.567
732.839,1.544
733.101,1.511
733.363,1.483
733.625,1.481
733.887,1.496
734.149,1.510
734.411,1.535
734.673,1.552
734.935,1.557
735.197,1.543
735.459,1.550
735.721,1.566
735.983,1.558
736.245,1.506
736.507,1.481
736.769,1.500
737.031,1.531
737.293,1.521
737.555,1.484
737.818,1.457
738.080,1.443
738.342,1.446
738.604,1.447
738.867,1.455
739.129,1.453
739.391,1.450
739.654,1.444
739.916,1.451
740.178,1.476
740.441,1.517
740.703,1.533
740.966,1.519
741.228,1.494
741.491,1.483
741.753,1.494
742.016,1.495
742.278,1.497
742.541,1.500
742.804,1.521
743.066,1.553
743.329,1.569
743.592,1.551
743.854,1.542
744.117,1.550
744.380,1.571
744.643,1.560
744.905,1.528
745.168,1.507
745.431,1.492
745.694,1.478
745.957,1.466
746.220,1.459
746.483,1.455
746.746,1.455
747.009,1.491
747.272,1.557
747.535,1.616
747.798,1.627
748.061,1.585
748.324,1.526
748.588,1.484
748.851,1.480
749.114,1.487
749.377,1.502
749.641,1.505
749.904,1.525
750.167,1.556
750.431,1.583
750.694,1.607
750.958,1.613
751.221,1.594
751.485,1.535
