Wavelength (nm),Intensity Source #105,,C:/Users/Brend/Desktop/LED Spectras v2/Spectrometer Data.sp,,,Source #105,
379.792,1.917,,2018-06-14 10:16:03,,Integration Time,163 ms,
380.000,1.916,,Analyze Light,,Number of Scans to Average,25,
380.209,1.910,,,,Smoothing,1,
380.418,1.924
380.627,1.943
380.837,1.963
381.048,1.973
381.259,1.975
381.471,1.975
381.683,1.981
381.896,1.993
382.110,1.998
382.324,2.004
382.538,2.017
382.753,2.032
382.969,2.031
383.185,2.024
383.402,2.019
383.619,2.027
383.837,2.039
384.055,2.062
384.274,2.081
384.493,2.089
384.712,2.088
384.932,2.089
385.153,2.096
385.374,2.105
385.596,2.115
385.818,2.132
386.040,2.151
386.263,2.170
386.487,2.176
386.710,2.177
386.935,2.169
387.159,2.168
387.385,2.166
387.610,2.168
387.836,2.168
388.063,2.172
388.289,2.176
388.517,2.179
388.744,2.182
388.972,2.196
389.201,2.206
389.430,2.221
389.659,2.232
389.889,2.248
390.119,2.260
390.349,2.267
390.580,2.271
390.811,2.274
391.042,2.274
391.274,2.279
391.507,2.287
391.739,2.292
391.972,2.291
392.205,2.297
392.439,2.312
392.673,2.331
392.907,2.342
393.142,2.356
393.377,2.368
393.612,2.386
393.848,2.394
394.084,2.404
394.320,2.406
394.557,2.417
394.794,2.424
395.031,2.438
395.269,2.450
395.507,2.463
395.745,2.464
395.983,2.466
396.222,2.472
396.461,2.492
396.700,2.515
396.940,2.532
397.180,2.537
397.420,2.533
397.660,2.530
397.901,2.528
398.142,2.529
398.383,2.524
398.625,2.519
398.866,2.526
399.108,2.554
399.351,2.592
399.593,2.607
399.836,2.605
400.079,2.591
400.322,2.584
400.566,2.577
400.809,2.572
401.053,2.575
401.298,2.584
401.542,2.597
401.787,2.612
402.031,2.627
402.277,2.648
402.522,2.660
402.767,2.671
403.013,2.666
403.259,2.668
403.505,2.669
403.752,2.677
403.998,2.685
404.245,2.712
404.492,2.739
404.739,2.755
404.986,2.757
405.234,2.761
405.482,2.764
405.730,2.762
405.978,2.762
406.226,2.763
406.475,2.757
406.723,2.755
406.972,2.763
407.221,2.785
407.470,2.796
407.720,2.802
407.969,2.792
408.219,2.798
408.469,2.810
408.719,2.830
408.969,2.837
409.219,2.847
409.470,2.855
409.720,2.865
409.971,2.872
410.222,2.889
410.473,2.898
410.724,2.898
410.976,2.895
411.227,2.903
411.479,2.912
411.731,2.922
411.983,2.926
412.235,2.932
412.487,2.932
412.740,2.937
412.992,2.940
413.245,2.949
413.497,2.953
413.750,2.958
414.003,2.952
414.257,2.948
414.510,2.943
414.763,2.951
415.017,2.956
415.270,2.966
415.524,2.966
415.778,2.965
416.032,2.961
416.286,2.972
416.540,2.981
416.794,2.993
417.049,2.987
417.303,2.986
417.558,2.986
417.812,2.989
418.067,2.990
418.322,2.992
418.577,2.992
418.832,2.985
419.088,2.970
419.343,2.967
419.598,2.962
419.854,2.969
420.109,2.972
420.365,2.990
420.621,2.998
420.876,3.011
421.132,3.014
421.388,3.016
421.645,3.011
421.901,3.011
422.157,3.016
422.413,3.028
422.670,3.032
422.926,3.041
423.183,3.039
423.439,3.057
423.696,3.080
423.953,3.133
424.210,3.179
424.467,3.204
424.724,3.209
424.981,3.204
425.238,3.216
425.495,3.245
425.753,3.276
426.010,3.305
426.267,3.327
426.525,3.372
426.782,3.417
427.040,3.469
427.298,3.524
427.555,3.596
427.813,3.661
428.071,3.725
428.329,3.784
428.587,3.854
428.845,3.922
429.103,3.999
429.361,4.075
429.619,4.162
429.878,4.254
430.136,4.364
430.394,4.470
430.653,4.604
430.911,4.744
431.170,4.900
431.428,5.033
431.687,5.173
431.946,5.311
432.204,5.465
432.463,5.627
432.722,5.798
432.981,5.971
433.240,6.166
433.499,6.375
433.758,6.609
434.017,6.828
434.276,7.053
434.535,7.272
434.794,7.513
435.053,7.770
435.312,8.053
435.572,8.335
435.831,8.631
436.090,8.940
436.350,9.285
436.609,9.640
436.869,10.006
437.128,10.359
437.388,10.729
437.647,11.107
437.907,11.517
438.166,11.932
438.426,12.366
438.686,12.804
438.946,13.276
439.205,13.778
439.465,14.310
439.725,14.856
439.985,15.421
440.245,15.994
440.505,16.593
440.765,17.194
441.025,17.804
441.285,18.426
441.545,19.078
441.805,19.776
442.065,20.500
442.325,21.266
442.585,22.066
442.846,22.909
443.106,23.793
443.366,24.729
443.626,25.709
443.887,26.726
444.147,27.773
444.407,28.859
444.668,29.998
444.928,31.194
445.189,32.466
445.449,33.798
445.710,35.189
445.970,36.629
446.231,38.145
446.491,39.733
446.752,41.376
447.012,43.070
447.273,44.821
447.534,46.640
447.794,48.506
448.055,50.417
448.316,52.405
448.577,54.493
448.837,56.660
449.098,58.877
449.359,61.099
449.620,63.322
449.881,65.542
450.142,67.769
450.403,70.035
450.664,72.320
450.924,74.621
451.185,76.880
451.446,79.080
451.707,81.163
451.969,83.081
452.230,84.736
452.491,86.103
452.752,87.215
453.013,88.153
453.274,88.976
453.535,89.690
453.796,90.311
454.058,90.828
454.319,91.249
454.580,91.573
454.841,91.809
455.103,91.979
455.364,92.085
455.625,92.137
455.887,92.128
456.148,92.066
456.409,91.953
456.671,91.782
456.932,91.548
457.194,91.245
457.455,90.863
457.716,90.403
457.978,89.865
458.239,89.230
458.501,88.508
458.763,87.678
459.024,86.726
459.286,85.572
459.547,84.167
459.809,82.491
460.071,80.616
460.332,78.634
460.594,76.638
460.856,74.669
461.117,72.728
461.379,70.823
461.641,68.942
461.903,67.087
462.164,65.276
462.426,63.517
462.688,61.839
462.950,60.232
463.212,58.694
463.474,57.201
463.736,55.769
463.998,54.424
464.260,53.182
464.522,52.027
464.784,50.930
465.046,49.903
465.308,48.933
465.570,48.032
465.832,47.169
466.094,46.373
466.356,45.604
466.618,44.874
466.880,44.131
467.142,43.407
467.405,42.693
467.667,42.026
467.929,41.363
468.191,40.713
468.454,40.065
468.716,39.421
468.978,38.756
469.241,38.050
469.503,37.343
469.765,36.651
470.028,35.975
470.290,35.298
470.552,34.615
470.815,33.937
471.077,33.240
471.340,32.539
471.602,31.830
471.865,31.126
472.128,30.404
472.390,29.682
472.653,28.964
472.915,28.245
473.178,27.531
473.441,26.817
473.703,26.112
473.966,25.408
474.229,24.706
474.492,24.003
474.755,23.297
475.017,22.620
475.280,21.978
475.543,21.370
475.806,20.749
476.069,20.130
476.332,19.506
476.595,18.917
476.858,18.357
477.121,17.820
477.384,17.291
477.647,16.786
477.910,16.306
478.173,15.849
478.436,15.404
478.699,14.993
478.962,14.603
479.226,14.233
479.489,13.860
479.752,13.506
480.015,13.160
480.279,12.832
480.542,12.501
480.805,12.189
481.069,11.881
481.332,11.598
481.595,11.320
481.859,11.072
482.122,10.823
482.386,10.576
482.649,10.325
482.913,10.087
483.177,9.851
483.440,9.618
483.704,9.385
483.967,9.179
484.231,8.985
484.495,8.812
484.759,8.632
485.022,8.438
485.286,8.229
485.550,8.024
485.814,7.807
486.078,7.604
486.342,7.405
486.606,7.242
486.869,7.078
487.133,6.922
487.397,6.762
487.662,6.602
487.926,6.425
488.190,6.250
488.454,6.068
488.718,5.904
488.982,5.734
489.246,5.589
489.511,5.441
489.775,5.297
490.039,5.144
490.304,4.999
490.568,4.850
490.832,4.708
491.097,4.573
491.361,4.457
491.626,4.341
491.890,4.228
492.155,4.121
492.419,4.029
492.684,3.922
492.949,3.813
493.213,3.708
493.478,3.630
493.743,3.545
494.008,3.446
494.272,3.338
494.537,3.258
494.802,3.196
495.067,3.143
495.332,3.084
495.597,3.025
495.862,2.959
496.127,2.900
496.392,2.838
496.657,2.780
496.922,2.716
497.187,2.667
497.452,2.630
497.718,2.609
497.983,2.576
498.248,2.535
498.513,2.486
498.779,2.457
499.044,2.436
499.310,2.408
499.575,2.365
499.841,2.328
500.106,2.300
500.372,2.272
500.637,2.247
500.903,2.234
501.168,2.223
501.434,2.201
501.700,2.163
501.966,2.131
502.231,2.105
502.497,2.086
502.763,2.057
503.029,2.030
503.295,2.009
503.561,1.996
503.827,1.989
504.093,1.976
504.359,1.961
504.625,1.945
504.891,1.927
505.157,1.913
505.423,1.888
505.690,1.862
505.956,1.838
506.222,1.830
506.489,1.839
506.755,1.851
507.021,1.857
507.288,1.856
507.554,1.844
507.821,1.831
508.087,1.818
508.354,1.817
508.621,1.812
508.887,1.798
509.154,1.781
509.421,1.765
509.687,1.749
509.954,1.730
510.221,1.716
510.488,1.716
510.755,1.723
511.022,1.733
511.289,1.728
511.556,1.719
511.823,1.707
512.090,1.709
512.357,1.704
512.624,1.697
512.891,1.681
513.159,1.668
513.426,1.655
513.693,1.647
513.960,1.643
514.228,1.643
514.495,1.642
514.763,1.644
515.030,1.637
515.298,1.627
515.565,1.618
515.833,1.613
516.100,1.610
516.368,1.606
516.636,1.603
516.904,1.605
517.171,1.604
517.439,1.603
517.707,1.595
517.975,1.593
518.243,1.595
518.511,1.595
518.779,1.578
519.047,1.570
519.315,1.565
519.583,1.564
519.851,1.545
520.119,1.532
520.387,1.527
520.656,1.527
520.924,1.526
521.192,1.528
521.461,1.536
521.729,1.543
521.997,1.548
522.266,1.550
522.534,1.552
522.803,1.557
523.071,1.556
523.340,1.542
523.609,1.517
523.877,1.495
524.146,1.489
524.415,1.496
524.684,1.506
524.952,1.506
525.221,1.503
525.490,1.509
525.759,1.521
526.028,1.523
526.297,1.506
526.566,1.491
526.835,1.483
527.104,1.484
527.373,1.492
527.642,1.493
527.912,1.486
528.181,1.474
528.450,1.471
528.719,1.478
528.989,1.494
529.258,1.509
529.528,1.512
529.797,1.505
530.067,1.506
530.336,1.505
530.606,1.494
530.875,1.475
531.145,1.468
531.414,1.473
531.684,1.484
531.954,1.489
532.224,1.481
532.493,1.461
532.763,1.451
533.033,1.453
533.303,1.460
533.573,1.464
533.843,1.455
534.113,1.447
534.383,1.440
534.653,1.442
534.923,1.448
535.193,1.457
535.463,1.474
535.733,1.490
536.004,1.502
536.274,1.500
536.544,1.488
536.814,1.470
537.085,1.456
537.355,1.462
537.626,1.481
537.896,1.495
538.166,1.493
538.437,1.480
538.707,1.468
538.978,1.467
539.249,1.478
539.519,1.484
539.790,1.481
540.061,1.481
540.331,1.494
540.602,1.516
540.873,1.529
541.144,1.526
541.414,1.515
541.685,1.507
541.956,1.500
542.227,1.497
542.498,1.487
542.769,1.481
543.040,1.481
543.311,1.496
543.582,1.512
543.853,1.525
544.124,1.531
544.396,1.535
544.667,1.537
544.938,1.530
545.209,1.501
545.480,1.479
545.752,1.467
546.023,1.476
546.294,1.472
546.566,1.458
546.837,1.443
547.109,1.439
547.380,1.442
547.652,1.443
547.923,1.441
548.195,1.447
548.466,1.462
548.738,1.481
549.009,1.480
549.281,1.464
549.553,1.438
549.824,1.415
550.096,1.405
550.368,1.407
550.640,1.418
550.911,1.430
551.183,1.447
551.455,1.469
551.727,1.484
551.999,1.478
552.271,1.460
552.543,1.445
552.815,1.440
553.087,1.444
553.359,1.452
553.631,1.459
553.903,1.460
554.175,1.463
554.447,1.467
554.719,1.467
554.991,1.462
555.263,1.456
555.535,1.450
555.808,1.445
556.080,1.437
556.352,1.433
556.624,1.428
556.897,1.426
557.169,1.428
557.441,1.427
557.714,1.425
557.986,1.419
558.258,1.415
558.531,1.421
558.803,1.430
559.076,1.439
559.348,1.435
559.621,1.426
559.893,1.422
560.166,1.422
560.438,1.420
560.711,1.415
560.983,1.413
561.256,1.418
561.528,1.429
561.801,1.439
562.074,1.448
562.346,1.452
562.619,1.458
562.892,1.457
563.164,1.456
563.437,1.455
563.710,1.452
563.983,1.437
564.255,1.421
564.528,1.424
564.801,1.440
565.074,1.451
565.346,1.445
565.619,1.439
565.892,1.444
566.165,1.444
566.438,1.430
566.711,1.413
566.984,1.405
567.257,1.408
567.529,1.414
567.802,1.430
568.075,1.444
568.348,1.445
568.621,1.439
568.894,1.430
569.167,1.428
569.440,1.419
569.713,1.408
569.986,1.403
570.259,1.399
570.532,1.406
570.805,1.411
571.078,1.417
571.351,1.420
571.625,1.422
571.898,1.418
572.171,1.409
572.444,1.402
572.717,1.410
572.990,1.423
573.263,1.422
573.536,1.408
573.809,1.390
574.083,1.383
574.356,1.390
574.629,1.406
574.902,1.419
575.175,1.420
575.448,1.408
575.721,1.400
575.995,1.397
576.268,1.401
576.541,1.410
576.814,1.419
577.087,1.427
577.361,1.430
577.634,1.427
577.907,1.415
578.180,1.398
578.453,1.388
578.727,1.392
579.000,1.399
579.273,1.409
579.546,1.422
579.820,1.436
580.093,1.439
580.366,1.431
580.639,1.419
580.913,1.412
581.186,1.409
581.459,1.404
581.732,1.394
582.005,1.390
582.279,1.385
582.552,1.390
582.825,1.393
583.098,1.397
583.372,1.402
583.645,1.405
583.918,1.408
584.191,1.405
584.464,1.402
584.738,1.401
585.011,1.402
585.284,1.401
585.557,1.399
585.831,1.404
586.104,1.420
586.377,1.439
586.650,1.450
586.923,1.452
587.196,1.446
587.470,1.435
587.743,1.424
588.016,1.415
588.289,1.418
588.562,1.426
588.835,1.428
589.109,1.421
589.382,1.411
589.655,1.402
589.928,1.397
590.201,1.396
590.474,1.403
590.747,1.415
591.020,1.422
591.293,1.424
591.567,1.419
591.840,1.411
592.113,1.405
592.386,1.398
592.659,1.393
592.932,1.392
593.205,1.397
593.478,1.402
593.751,1.403
594.024,1.400
594.297,1.395
594.570,1.391
594.843,1.393
595.116,1.400
595.389,1.404
595.662,1.399
595.934,1.400
596.207,1.403
596.480,1.414
596.753,1.423
597.026,1.427
597.299,1.426
597.572,1.425
597.844,1.419
598.117,1.406
598.390,1.392
598.663,1.385
598.936,1.390
599.208,1.397
599.481,1.405
599.754,1.408
600.026,1.397
600.299,1.382
600.572,1.371
600.844,1.368
601.117,1.365
601.390,1.364
601.662,1.364
601.935,1.367
602.207,1.371
602.480,1.377
602.752,1.379
603.025,1.374
603.297,1.375
603.570,1.386
603.842,1.402
604.115,1.411
604.387,1.419
604.660,1.415
604.932,1.411
605.204,1.410
605.477,1.421
605.749,1.433
606.021,1.443
606.294,1.445
606.566,1.435
606.838,1.427
607.110,1.424
607.383,1.428
607.655,1.432
607.927,1.439
608.199,1.449
608.471,1.455
608.743,1.450
609.015,1.440
609.287,1.434
609.559,1.435
609.831,1.441
610.103,1.442
610.375,1.437
610.647,1.423
610.919,1.415
611.191,1.414
611.463,1.417
611.735,1.417
612.007,1.408
612.278,1.399
612.550,1.393
612.822,1.398
613.094,1.405
613.365,1.410
613.637,1.414
613.909,1.415
614.180,1.414
614.452,1.408
614.723,1.401
614.995,1.395
615.266,1.395
615.538,1.407
615.809,1.420
616.081,1.421
616.352,1.410
616.623,1.396
616.895,1.390
617.166,1.385
617.437,1.384
617.709,1.386
617.980,1.392
618.251,1.400
618.522,1.408
618.793,1.423
619.065,1.439
619.336,1.436
619.607,1.421
619.878,1.414
620.149,1.424
620.420,1.429
620.691,1.423
620.962,1.421
621.232,1.430
621.503,1.433
621.774,1.429
622.045,1.421
622.316,1.421
622.586,1.427
622.857,1.439
623.128,1.443
623.398,1.438
623.669,1.424
623.940,1.409
624.210,1.397
624.481,1.400
624.751,1.408
625.021,1.412
625.292,1.406
625.562,1.401
625.833,1.399
626.103,1.391
626.373,1.377
626.643,1.373
626.914,1.378
627.184,1.391
627.454,1.396
627.724,1.397
627.994,1.396
628.264,1.397
628.534,1.395
628.804,1.393
629.074,1.396
629.344,1.403
629.614,1.406
629.884,1.396
630.154,1.382
630.424,1.369
630.693,1.358
630.963,1.347
631.233,1.338
631.502,1.341
631.772,1.359
632.041,1.379
632.311,1.389
632.581,1.390
632.850,1.382
633.119,1.370
633.389,1.358
633.658,1.352
633.928,1.360
634.197,1.375
634.466,1.394
634.735,1.405
635.004,1.404
635.274,1.394
635.543,1.382
635.812,1.376
636.081,1.376
636.350,1.378
636.619,1.382
636.888,1.384
637.157,1.388
637.426,1.396
637.694,1.398
637.963,1.394
638.232,1.383
638.501,1.373
638.769,1.373
639.038,1.380
639.307,1.396
639.575,1.406
639.844,1.404
640.112,1.392
640.381,1.378
640.649,1.375
640.917,1.380
641.186,1.383
641.454,1.386
641.722,1.383
641.991,1.383
642.259,1.374
642.527,1.369
642.795,1.366
643.063,1.363
643.331,1.360
643.599,1.358
643.867,1.366
644.135,1.372
644.403,1.381
644.671,1.385
644.939,1.392
645.206,1.394
645.474,1.399
645.742,1.395
646.009,1.383
646.277,1.375
646.545,1.379
646.812,1.396
647.080,1.413
647.347,1.421
647.615,1.413
647.882,1.392
648.149,1.371
648.417,1.361
648.684,1.364
648.951,1.377
649.219,1.387
649.486,1.392
649.753,1.388
650.020,1.379
650.287,1.369
650.554,1.362
650.821,1.359
651.088,1.357
651.355,1.365
651.622,1.373
651.889,1.382
652.155,1.381
652.422,1.378
652.689,1.380
652.956,1.384
653.222,1.397
653.489,1.416
653.755,1.427
654.022,1.421
654.288,1.402
654.555,1.386
654.821,1.384
655.088,1.392
655.354,1.402
655.620,1.414
655.887,1.420
656.153,1.422
656.419,1.418
656.685,1.411
656.951,1.407
657.217,1.401
657.483,1.396
657.749,1.389
658.015,1.383
658.281,1.379
658.547,1.372
658.813,1.365
659.079,1.360
659.345,1.356
659.610,1.355
659.876,1.355
660.142,1.360
660.407,1.365
660.673,1.372
660.939,1.381
661.204,1.382
661.470,1.375
661.735,1.368
662.000,1.370
662.266,1.375
662.531,1.378
662.796,1.377
663.062,1.372
663.327,1.365
663.592,1.360
663.857,1.359
664.122,1.362
664.388,1.361
664.653,1.363
664.918,1.368
665.183,1.375
665.448,1.384
665.712,1.394
665.977,1.402
666.242,1.399
666.507,1.381
666.772,1.361
667.037,1.349
667.301,1.349
667.566,1.353
667.831,1.357
668.095,1.361
668.360,1.363
668.624,1.360
668.889,1.365
669.153,1.366
669.418,1.368
669.682,1.367
669.946,1.370
670.211,1.378
670.475,1.384
670.739,1.394
671.004,1.408
671.268,1.439
671.532,1.468
671.796,1.459
672.060,1.433
672.324,1.407
672.588,1.415
672.852,1.438
673.116,1.486
673.380,1.528
673.644,1.506
673.908,1.449
674.172,1.392
674.436,1.387
674.700,1.386
674.963,1.391
675.227,1.394
675.491,1.389
675.754,1.381
676.018,1.376
676.282,1.381
676.545,1.383
676.809,1.378
677.072,1.368
677.336,1.360
677.599,1.363
677.863,1.365
678.126,1.371
678.389,1.381
678.653,1.395
678.916,1.395
679.179,1.382
679.442,1.372
679.706,1.376
679.969,1.383
680.232,1.389
680.495,1.394
680.758,1.402
681.021,1.398
681.284,1.386
681.547,1.375
681.810,1.383
682.073,1.401
682.336,1.412
682.599,1.408
682.862,1.396
683.125,1.390
683.388,1.396
683.651,1.400
683.913,1.400
684.176,1.388
684.439,1.371
684.702,1.356
684.964,1.349
685.227,1.351
685.490,1.362
685.752,1.380
686.015,1.389
686.277,1.386
686.540,1.373
686.802,1.360
687.065,1.357
687.327,1.359
687.590,1.361
687.852,1.355
688.115,1.346
688.377,1.343
688.639,1.343
688.902,1.347
689.164,1.358
689.426,1.375
689.689,1.387
689.951,1.385
690.213,1.380
690.475,1.378
690.737,1.377
691.000,1.370
691.262,1.367
691.524,1.374
691.786,1.389
692.048,1.401
692.310,1.398
692.572,1.381
692.834,1.360
693.096,1.354
693.358,1.361
693.620,1.376
693.882,1.389
694.144,1.394
694.406,1.392
694.668,1.386
694.930,1.381
695.192,1.375
695.453,1.373
695.715,1.373
695.977,1.370
696.239,1.363
696.501,1.362
696.762,1.368
697.024,1.375
697.286,1.369
697.548,1.365
697.809,1.361
698.071,1.358
698.333,1.355
698.594,1.358
698.856,1.370
699.118,1.377
699.379,1.382
699.641,1.386
699.902,1.390
700.164,1.386
700.426,1.378
700.687,1.369
700.949,1.367
701.210,1.366
701.472,1.363
701.733,1.357
701.995,1.358
702.256,1.359
702.518,1.361
702.779,1.363
703.041,1.377
703.302,1.393
703.563,1.395
703.825,1.383
704.086,1.369
704.348,1.364
704.609,1.368
704.871,1.381
705.132,1.391
705.393,1.384
705.655,1.371
705.916,1.366
706.177,1.370
706.439,1.375
706.700,1.376
706.961,1.376
707.223,1.373
707.484,1.354
707.745,1.334
708.007,1.316
708.268,1.309
708.529,1.300
708.790,1.284
709.052,1.276
709.313,1.280
709.574,1.290
709.835,1.298
710.097,1.294
710.358,1.280
710.619,1.263
710.881,1.249
711.142,1.243
711.403,1.241
711.664,1.241
711.926,1.238
712.187,1.240
712.448,1.246
712.709,1.257
712.970,1.266
713.232,1.273
713.493,1.278
713.754,1.283
714.015,1.289
714.277,1.296
714.538,1.308
714.799,1.320
715.060,1.326
715.322,1.323
715.583,1.310
715.844,1.294
716.105,1.278
716.367,1.269
716.628,1.270
716.889,1.273
717.150,1.270
717.411,1.263
717.673,1.262
717.934,1.269
718.195,1.275
718.457,1.270
718.718,1.259
718.979,1.253
719.240,1.256
719.502,1.267
719.763,1.277
720.024,1.282
720.286,1.282
720.547,1.274
720.808,1.268
721.069,1.264
721.331,1.270
721.592,1.283
721.853,1.289
722.115,1.293
722.376,1.292
722.638,1.291
722.899,1.289
723.160,1.282
723.422,1.272
723.683,1.266
723.944,1.268
724.206,1.271
724.467,1.271
724.729,1.270
724.990,1.282
725.252,1.292
725.513,1.285
725.775,1.268
726.036,1.254
726.298,1.254
726.559,1.260
726.821,1.262
727.082,1.261
727.344,1.256
727.605,1.256
727.867,1.258
728.128,1.265
728.390,1.269
728.652,1.276
728.913,1.285
729.175,1.291
729.436,1.295
729.698,1.296
729.960,1.293
730.221,1.283
730.483,1.266
730.745,1.261
731.007,1.262
731.268,1.268
731.530,1.272
731.792,1.273
732.054,1.276
732.315,1.280
732.577,1.284
732.839,1.277
733.101,1.264
733.363,1.253
733.625,1.250
733.887,1.253
734.149,1.256
734.411,1.261
734.673,1.266
734.935,1.270
735.197,1.268
735.459,1.272
735.721,1.279
735.983,1.278
736.245,1.268
736.507,1.264
736.769,1.270
737.031,1.277
737.293,1.270
737.555,1.258
737.818,1.248
738.080,1.243
738.342,1.244
738.604,1.245
738.867,1.250
739.129,1.252
739.391,1.254
739.654,1.254
739.916,1.253
740.178,1.255
740.441,1.260
740.703,1.263
740.966,1.262
741.228,1.256
741.491,1.254
741.753,1.257
742.016,1.261
742.278,1.266
742.541,1.271
742.804,1.275
743.066,1.281
743.329,1.282
743.592,1.280
743.854,1.277
744.117,1.278
744.380,1.282
744.643,1.277
744.905,1.269
745.168,1.263
745.431,1.258
745.694,1.256
745.957,1.251
746.220,1.248
746.483,1.247
746.746,1.250
747.009,1.264
