Wavelength (nm),Intensity Source #110,,C:/Users/Brend/Desktop/LED Spectras v2/Spectrometer Data.sp,,,Source #110,
379.792,1.862,,2018-06-14 10:23:17,,Integration Time,138 ms,
380.000,1.862,,Analyze Light,,Number of Scans to Average,25,
380.209,1.865,,,,Smoothing,1,
380.418,1.878
380.627,1.894
380.837,1.909
381.048,1.913
381.259,1.912
381.471,1.915
381.683,1.924
381.896,1.934
382.110,1.937
382.324,1.945
382.538,1.960
382.753,1.972
382.969,1.968
383.185,1.958
383.402,1.952
383.619,1.964
383.837,1.980
384.055,2.001
384.274,2.017
384.493,2.029
384.712,2.035
384.932,2.043
385.153,2.051
385.374,2.059
385.596,2.066
385.818,2.078
386.040,2.096
386.263,2.117
386.487,2.125
386.710,2.126
386.935,2.116
387.159,2.116
387.385,2.112
387.610,2.111
387.836,2.112
388.063,2.118
388.289,2.128
388.517,2.137
388.744,2.141
388.972,2.152
389.201,2.159
389.430,2.167
389.659,2.172
389.889,2.183
390.119,2.196
390.349,2.207
390.580,2.220
390.811,2.227
391.042,2.229
391.274,2.229
391.507,2.231
391.739,2.230
391.972,2.225
392.205,2.231
392.439,2.248
392.673,2.269
392.907,2.284
393.142,2.298
393.377,2.307
393.612,2.316
393.848,2.319
394.084,2.324
394.320,2.325
394.557,2.335
394.794,2.341
395.031,2.355
395.269,2.368
395.507,2.384
395.745,2.392
395.983,2.399
396.222,2.408
396.461,2.425
396.700,2.444
396.940,2.455
397.180,2.455
397.420,2.448
397.660,2.443
397.901,2.445
398.142,2.452
398.383,2.460
398.625,2.464
398.866,2.474
399.108,2.493
399.351,2.523
399.593,2.533
399.836,2.535
400.079,2.523
400.322,2.518
400.566,2.509
400.809,2.507
401.053,2.511
401.298,2.520
401.542,2.533
401.787,2.547
402.031,2.560
402.277,2.571
402.522,2.577
402.767,2.588
403.013,2.588
403.259,2.594
403.505,2.597
403.752,2.604
403.998,2.604
404.245,2.618
404.492,2.635
404.739,2.652
404.986,2.657
405.234,2.662
405.482,2.668
405.730,2.675
405.978,2.678
406.226,2.675
406.475,2.667
406.723,2.668
406.972,2.684
407.221,2.704
407.470,2.715
407.720,2.722
407.969,2.717
408.219,2.722
408.469,2.727
408.719,2.741
408.969,2.747
409.219,2.757
409.470,2.766
409.720,2.781
409.971,2.790
410.222,2.805
410.473,2.810
410.724,2.814
410.976,2.821
411.227,2.837
411.479,2.850
411.731,2.861
411.983,2.865
412.235,2.871
412.487,2.867
412.740,2.867
412.992,2.865
413.245,2.874
413.497,2.879
413.750,2.886
414.003,2.884
414.257,2.885
414.510,2.886
414.763,2.898
415.017,2.904
415.270,2.910
415.524,2.906
415.778,2.906
416.032,2.909
416.286,2.925
416.540,2.933
416.794,2.942
417.049,2.941
417.303,2.947
417.558,2.949
417.812,2.949
418.067,2.946
418.322,2.945
418.577,2.942
418.832,2.942
419.088,2.936
419.343,2.935
419.598,2.927
419.854,2.928
420.109,2.930
420.365,2.949
420.621,2.964
420.876,2.983
421.132,2.988
421.388,2.988
421.645,2.980
421.901,2.981
422.157,2.980
422.413,2.985
422.670,2.986
422.926,2.992
423.183,2.987
423.439,2.995
423.696,3.006
423.953,3.039
424.210,3.065
424.467,3.080
424.724,3.081
424.981,3.079
425.238,3.092
425.495,3.121
425.753,3.147
426.010,3.167
426.267,3.179
426.525,3.214
426.782,3.248
427.040,3.288
427.298,3.324
427.555,3.373
427.813,3.419
428.071,3.465
428.329,3.507
428.587,3.552
428.845,3.597
429.103,3.651
429.361,3.711
429.619,3.779
429.878,3.844
430.136,3.924
430.394,4.007
430.653,4.113
430.911,4.221
431.170,4.335
431.428,4.436
431.687,4.543
431.946,4.649
432.204,4.770
432.463,4.897
432.722,5.039
432.981,5.181
433.240,5.334
433.499,5.488
433.758,5.662
434.017,5.825
434.276,6.009
434.535,6.194
434.794,6.398
435.053,6.609
435.312,6.828
435.572,7.046
435.831,7.279
436.090,7.538
436.350,7.822
436.609,8.110
436.869,8.393
437.128,8.669
437.388,8.964
437.647,9.280
437.907,9.632
438.166,9.980
438.426,10.332
438.686,10.693
438.946,11.086
439.205,11.497
439.465,11.931
439.725,12.387
439.985,12.863
440.245,13.337
440.505,13.829
440.765,14.327
441.025,14.837
441.285,15.359
441.545,15.911
441.805,16.498
442.065,17.102
442.325,17.729
442.585,18.393
442.846,19.094
443.106,19.858
443.366,20.653
443.626,21.486
443.887,22.314
444.147,23.180
444.407,24.079
444.668,25.036
444.928,26.042
445.189,27.099
445.449,28.191
445.710,29.340
445.970,30.551
446.231,31.842
446.491,33.193
446.752,34.591
447.012,36.034
447.273,37.537
447.534,39.096
447.794,40.716
448.055,42.391
448.316,44.152
448.577,45.999
448.837,47.912
449.098,49.893
449.359,51.915
449.620,53.963
449.881,56.024
450.142,58.127
450.403,60.304
450.664,62.542
450.924,64.831
451.185,67.134
451.446,69.449
451.707,71.755
451.969,74.029
452.230,76.261
452.491,78.434
452.752,80.519
453.013,82.453
453.274,84.147
453.535,85.574
453.796,86.741
454.058,87.711
454.319,88.557
454.580,89.303
454.841,89.975
455.103,90.547
455.364,91.024
455.625,91.412
455.887,91.716
456.148,91.959
456.409,92.143
456.671,92.266
456.932,92.329
457.194,92.337
457.455,92.301
457.716,92.211
457.978,92.077
458.239,91.900
458.501,91.691
458.763,91.431
459.024,91.114
459.286,90.720
459.547,90.251
459.809,89.687
460.071,89.037
460.332,88.303
460.594,87.479
460.856,86.538
461.117,85.431
461.379,84.140
461.641,82.659
461.903,81.025
462.164,79.302
462.426,77.551
462.688,75.790
462.950,74.016
463.212,72.242
463.474,70.492
463.736,68.775
463.998,67.140
464.260,65.599
464.522,64.154
464.784,62.765
465.046,61.413
465.308,60.122
465.570,58.877
465.832,57.696
466.094,56.567
466.356,55.503
466.618,54.480
466.880,53.488
467.142,52.534
467.405,51.621
467.667,50.758
467.929,49.924
468.191,49.094
468.454,48.271
468.716,47.445
468.978,46.638
469.241,45.816
469.503,45.015
469.765,44.226
470.028,43.471
470.290,42.715
470.552,41.977
470.815,41.236
471.077,40.497
471.340,39.741
471.602,38.999
471.865,38.257
472.128,37.504
472.390,36.750
472.653,36.000
472.915,35.267
473.178,34.515
473.441,33.759
473.703,32.989
473.966,32.228
474.229,31.452
474.492,30.680
474.755,29.888
475.017,29.126
475.280,28.371
475.543,27.649
475.806,26.913
476.069,26.188
476.332,25.450
476.595,24.748
476.858,24.056
477.121,23.393
477.384,22.739
477.647,22.106
477.910,21.496
478.173,20.906
478.436,20.327
478.699,19.769
478.962,19.221
479.226,18.711
479.489,18.209
479.752,17.724
480.015,17.239
480.279,16.779
480.542,16.334
480.805,15.908
481.069,15.487
481.332,15.093
481.595,14.721
481.859,14.381
482.122,14.035
482.386,13.689
482.649,13.341
482.913,13.017
483.177,12.702
483.440,12.400
483.704,12.105
483.967,11.842
484.231,11.596
484.495,11.363
484.759,11.114
485.022,10.855
485.286,10.585
485.550,10.328
485.814,10.071
486.078,9.828
486.342,9.593
486.606,9.378
486.869,9.168
487.133,8.969
487.397,8.772
487.662,8.581
487.926,8.378
488.190,8.180
488.454,7.970
488.718,7.769
488.982,7.559
489.246,7.370
489.511,7.178
489.775,6.999
490.039,6.819
490.304,6.643
490.568,6.462
490.832,6.288
491.097,6.121
491.361,5.968
491.626,5.804
491.890,5.651
492.155,5.496
492.419,5.366
492.684,5.221
492.949,5.081
493.213,4.938
493.478,4.813
493.743,4.677
494.008,4.534
494.272,4.388
494.537,4.269
494.802,4.161
495.067,4.067
495.332,3.974
495.597,3.892
495.862,3.800
496.127,3.715
496.392,3.625
496.657,3.535
496.922,3.440
497.187,3.357
497.452,3.286
497.718,3.235
497.983,3.177
498.248,3.116
498.513,3.040
498.779,2.984
499.044,2.932
499.310,2.880
499.575,2.814
499.841,2.762
500.106,2.718
500.372,2.675
500.637,2.632
500.903,2.603
501.168,2.575
501.434,2.540
501.700,2.486
501.966,2.439
502.231,2.398
502.497,2.369
502.763,2.337
503.029,2.306
503.295,2.271
503.561,2.240
503.827,2.214
504.093,2.194
504.359,2.174
504.625,2.158
504.891,2.138
505.157,2.119
505.423,2.087
505.690,2.053
505.956,2.020
506.222,2.003
506.489,2.003
506.755,2.008
507.021,2.007
507.288,1.997
507.554,1.976
507.821,1.952
508.087,1.928
508.354,1.917
508.621,1.906
508.887,1.893
509.154,1.877
509.421,1.863
509.687,1.847
509.954,1.829
510.221,1.812
510.488,1.806
510.755,1.804
511.022,1.806
511.289,1.794
511.556,1.779
511.823,1.761
512.090,1.758
512.357,1.749
512.624,1.740
512.891,1.727
513.159,1.716
513.426,1.704
513.693,1.696
513.960,1.691
514.228,1.693
514.495,1.694
514.763,1.694
515.030,1.685
515.298,1.673
515.565,1.663
515.833,1.656
516.100,1.650
516.368,1.645
516.636,1.637
516.904,1.635
517.171,1.627
517.439,1.622
517.707,1.612
517.975,1.609
518.243,1.609
518.511,1.608
518.779,1.597
519.047,1.594
519.315,1.593
519.583,1.593
519.851,1.580
520.119,1.567
520.387,1.558
520.656,1.551
520.924,1.551
521.192,1.556
521.461,1.565
521.729,1.572
521.997,1.572
522.266,1.570
522.534,1.564
522.803,1.563
523.071,1.555
523.340,1.538
523.609,1.515
523.877,1.500
524.146,1.497
524.415,1.507
524.684,1.515
524.952,1.512
525.221,1.504
525.490,1.503
525.759,1.508
526.028,1.507
526.297,1.494
526.566,1.484
526.835,1.479
527.104,1.485
527.373,1.490
527.642,1.491
527.912,1.486
528.181,1.482
528.450,1.484
528.719,1.490
528.989,1.502
529.258,1.514
529.528,1.514
529.797,1.503
530.067,1.493
530.336,1.485
530.606,1.478
530.875,1.467
531.145,1.461
531.414,1.464
531.684,1.471
531.954,1.476
532.224,1.470
532.493,1.455
532.763,1.445
533.033,1.446
533.303,1.453
533.573,1.460
533.843,1.454
534.113,1.448
534.383,1.439
534.653,1.442
534.923,1.450
535.193,1.458
535.463,1.468
535.733,1.474
536.004,1.478
536.274,1.476
536.544,1.469
536.814,1.461
537.085,1.453
537.355,1.451
537.626,1.457
537.896,1.463
538.166,1.463
538.437,1.459
538.707,1.453
538.978,1.453
539.249,1.462
539.519,1.467
539.790,1.463
540.061,1.458
540.331,1.466
540.602,1.484
540.873,1.493
541.144,1.493
541.414,1.487
541.685,1.486
541.956,1.484
542.227,1.481
542.498,1.473
542.769,1.471
543.040,1.480
543.311,1.496
543.582,1.506
543.853,1.508
544.124,1.508
544.396,1.509
544.667,1.507
544.938,1.498
545.209,1.475
545.480,1.459
545.752,1.452
546.023,1.461
546.294,1.457
546.566,1.448
546.837,1.437
547.109,1.434
547.380,1.432
547.652,1.428
547.923,1.423
548.195,1.425
548.466,1.438
548.738,1.454
549.009,1.455
549.281,1.449
549.553,1.434
549.824,1.421
550.096,1.411
550.368,1.410
550.640,1.412
550.911,1.417
551.183,1.429
551.455,1.450
551.727,1.464
551.999,1.459
552.271,1.439
552.543,1.422
552.815,1.415
553.087,1.421
553.359,1.430
553.631,1.437
553.903,1.439
554.175,1.443
554.447,1.450
554.719,1.451
554.991,1.446
555.263,1.441
555.535,1.434
555.808,1.425
556.080,1.414
556.352,1.409
556.624,1.407
556.897,1.408
557.169,1.408
557.441,1.405
557.714,1.404
557.986,1.405
558.258,1.404
558.531,1.408
558.803,1.411
559.076,1.417
559.348,1.415
559.621,1.411
559.893,1.413
560.166,1.417
560.438,1.419
560.711,1.412
560.983,1.405
561.256,1.401
561.528,1.407
561.801,1.418
562.074,1.431
562.346,1.439
562.619,1.444
562.892,1.441
563.164,1.437
563.437,1.435
563.710,1.433
563.983,1.424
564.255,1.415
564.528,1.418
564.801,1.429
565.074,1.433
565.346,1.425
565.619,1.418
565.892,1.420
566.165,1.421
566.438,1.411
566.711,1.400
566.984,1.394
567.257,1.395
567.529,1.401
567.802,1.414
568.075,1.427
568.348,1.429
568.621,1.425
568.894,1.417
569.167,1.413
569.440,1.406
569.713,1.398
569.986,1.395
570.259,1.390
570.532,1.393
570.805,1.394
571.078,1.400
571.351,1.404
571.625,1.407
571.898,1.400
572.171,1.390
572.444,1.382
572.717,1.390
572.990,1.401
573.263,1.401
573.536,1.393
573.809,1.382
574.083,1.379
574.356,1.382
574.629,1.394
574.902,1.401
575.175,1.401
575.448,1.390
575.721,1.383
575.995,1.382
576.268,1.384
576.541,1.392
576.814,1.399
577.087,1.407
577.361,1.409
577.634,1.404
577.907,1.390
578.180,1.375
578.453,1.372
578.727,1.377
579.000,1.382
579.273,1.388
579.546,1.397
579.820,1.411
580.093,1.414
580.366,1.407
580.639,1.394
580.913,1.386
581.186,1.383
581.459,1.386
581.732,1.382
582.005,1.379
582.279,1.375
582.552,1.381
582.825,1.386
583.098,1.392
583.372,1.396
583.645,1.396
583.918,1.397
584.191,1.395
584.464,1.391
584.738,1.387
585.011,1.384
585.284,1.380
585.557,1.376
585.831,1.381
586.104,1.393
586.377,1.414
586.650,1.425
586.923,1.425
587.196,1.417
587.470,1.405
587.743,1.396
588.016,1.387
588.289,1.385
588.562,1.392
588.835,1.394
589.109,1.390
589.382,1.380
589.655,1.372
589.928,1.366
590.201,1.361
590.474,1.367
590.747,1.379
591.020,1.391
591.293,1.397
591.567,1.396
591.840,1.390
592.113,1.383
592.386,1.375
592.659,1.369
592.932,1.370
593.205,1.379
593.478,1.386
593.751,1.385
594.024,1.379
594.297,1.370
594.570,1.366
594.843,1.367
595.116,1.372
595.389,1.377
595.662,1.376
595.934,1.378
596.207,1.383
596.480,1.394
596.753,1.405
597.026,1.408
597.299,1.406
597.572,1.401
597.844,1.397
598.117,1.388
598.390,1.375
598.663,1.365
598.936,1.366
599.208,1.373
599.481,1.385
599.754,1.388
600.026,1.379
600.299,1.364
600.572,1.354
600.844,1.353
601.117,1.349
601.390,1.345
601.662,1.344
601.935,1.348
602.207,1.353
602.480,1.361
602.752,1.365
603.025,1.362
603.297,1.358
603.570,1.367
603.842,1.382
604.115,1.395
604.387,1.400
604.660,1.396
604.932,1.391
605.204,1.389
605.477,1.396
605.749,1.409
606.021,1.418
606.294,1.419
606.566,1.409
606.838,1.405
607.110,1.407
607.383,1.415
607.655,1.419
607.927,1.425
608.199,1.428
608.471,1.429
608.743,1.421
609.015,1.415
609.287,1.411
609.559,1.414
609.831,1.418
610.103,1.419
610.375,1.417
610.647,1.411
610.919,1.399
611.191,1.394
611.463,1.396
611.735,1.396
612.007,1.389
612.278,1.378
612.550,1.372
612.822,1.374
613.094,1.381
613.365,1.387
613.637,1.393
613.909,1.396
614.180,1.396
614.452,1.393
614.723,1.385
614.995,1.377
615.266,1.376
615.538,1.384
615.809,1.395
616.081,1.392
616.352,1.382
616.623,1.372
616.895,1.369
617.166,1.366
617.437,1.363
617.709,1.365
617.980,1.370
618.251,1.380
618.522,1.386
618.793,1.401
619.065,1.414
619.336,1.412
619.607,1.397
619.878,1.387
620.149,1.393
620.420,1.395
620.691,1.389
620.962,1.388
621.232,1.398
621.503,1.402
621.774,1.398
622.045,1.390
622.316,1.395
622.586,1.403
622.857,1.413
623.128,1.411
623.398,1.403
623.669,1.396
623.940,1.388
624.210,1.379
624.481,1.377
624.751,1.380
625.021,1.381
625.292,1.377
625.562,1.377
625.833,1.373
626.103,1.363
626.373,1.352
626.643,1.353
626.914,1.360
627.184,1.369
627.454,1.373
627.724,1.373
627.994,1.375
628.264,1.376
628.534,1.370
628.804,1.362
629.074,1.361
629.344,1.364
629.614,1.365
629.884,1.361
630.154,1.354
630.424,1.349
630.693,1.340
630.963,1.329
631.233,1.321
631.502,1.324
631.772,1.337
632.041,1.350
632.311,1.356
632.581,1.361
632.850,1.361
633.119,1.355
633.389,1.346
633.658,1.339
633.928,1.342
634.197,1.351
634.466,1.362
634.735,1.372
635.004,1.371
635.274,1.365
635.543,1.355
635.812,1.352
636.081,1.351
636.350,1.352
636.619,1.357
636.888,1.359
637.157,1.363
637.426,1.368
637.694,1.372
637.963,1.370
638.232,1.365
638.501,1.357
638.769,1.356
639.038,1.360
639.307,1.373
639.575,1.382
639.844,1.379
640.112,1.369
640.381,1.355
640.649,1.353
640.917,1.354
641.186,1.355
641.454,1.354
641.722,1.351
641.991,1.350
642.259,1.345
642.527,1.345
642.795,1.347
643.063,1.345
643.331,1.344
643.599,1.342
643.867,1.350
644.135,1.356
644.403,1.366
644.671,1.369
644.939,1.372
645.206,1.372
645.474,1.372
645.742,1.363
646.009,1.349
646.277,1.340
646.545,1.344
646.812,1.360
647.080,1.378
647.347,1.388
647.615,1.386
647.882,1.373
648.149,1.359
648.417,1.351
648.684,1.354
648.951,1.363
649.219,1.369
649.486,1.370
649.753,1.366
650.020,1.360
650.287,1.354
650.554,1.348
650.821,1.344
651.088,1.343
651.355,1.351
651.622,1.357
651.889,1.361
652.155,1.354
652.422,1.350
652.689,1.356
652.956,1.363
653.222,1.373
653.489,1.384
653.755,1.391
654.022,1.381
654.288,1.363
654.555,1.353
654.821,1.355
655.088,1.363
655.354,1.371
655.620,1.375
655.887,1.375
656.153,1.378
656.419,1.382
656.685,1.382
656.951,1.377
657.217,1.371
657.483,1.364
657.749,1.357
658.015,1.354
658.281,1.352
658.547,1.349
658.813,1.341
659.079,1.336
659.345,1.333
659.610,1.335
659.876,1.340
660.142,1.345
660.407,1.347
660.673,1.350
660.939,1.353
661.204,1.352
661.470,1.346
661.735,1.341
662.000,1.343
662.266,1.344
662.531,1.348
662.796,1.349
663.062,1.348
663.327,1.344
663.592,1.345
663.857,1.347
664.122,1.347
664.388,1.345
664.653,1.349
664.918,1.355
665.183,1.355
665.448,1.355
665.712,1.356
665.977,1.363
666.242,1.364
666.507,1.351
666.772,1.335
667.037,1.325
667.301,1.328
667.566,1.335
667.831,1.342
668.095,1.345
668.360,1.346
668.624,1.340
668.889,1.342
669.153,1.340
669.418,1.341
669.682,1.340
669.946,1.345
670.211,1.353
670.475,1.364
670.739,1.378
671.004,1.392
671.268,1.416
671.532,1.435
671.796,1.427
672.060,1.406
672.324,1.386
672.588,1.389
672.852,1.399
673.116,1.429
673.380,1.456
673.644,1.437
673.908,1.392
674.172,1.350
674.436,1.347
674.700,1.350
674.963,1.356
675.227,1.362
675.491,1.362
675.754,1.358
676.018,1.351
676.282,1.353
676.545,1.354
676.809,1.353
677.072,1.343
677.336,1.340
677.599,1.344
677.863,1.348
678.126,1.354
678.389,1.364
678.653,1.374
678.916,1.373
679.179,1.357
679.442,1.346
679.706,1.350
679.969,1.354
680.232,1.360
680.495,1.368
680.758,1.377
681.021,1.375
681.284,1.362
681.547,1.351
681.810,1.353
682.073,1.365
682.336,1.375
682.599,1.376
682.862,1.369
683.125,1.366
683.388,1.368
683.651,1.371
683.913,1.370
684.176,1.360
684.439,1.346
684.702,1.333
684.964,1.327
685.227,1.330
685.490,1.341
685.752,1.357
686.015,1.362
686.277,1.361
686.540,1.351
686.802,1.344
687.065,1.344
687.327,1.348
687.590,1.351
687.852,1.343
688.115,1.331
688.377,1.324
688.639,1.326
688.902,1.331
689.164,1.343
689.426,1.359
689.689,1.370
689.951,1.368
690.213,1.360
690.475,1.354
690.737,1.349
691.000,1.343
691.262,1.342
691.524,1.350
691.786,1.362
692.048,1.374
692.310,1.371
692.572,1.354
692.834,1.334
693.096,1.329
693.358,1.341
693.620,1.357
693.882,1.369
694.144,1.369
694.406,1.361
694.668,1.354
694.930,1.348
695.192,1.347
695.453,1.348
695.715,1.352
695.977,1.351
696.239,1.343
696.501,1.339
696.762,1.342
697.024,1.349
697.286,1.346
697.548,1.340
697.809,1.337
698.071,1.335
698.333,1.333
698.594,1.332
698.856,1.337
699.118,1.343
699.379,1.349
699.641,1.357
699.902,1.363
700.164,1.366
700.426,1.365
700.687,1.358
700.949,1.353
701.210,1.348
701.472,1.346
701.733,1.342
701.995,1.341
702.256,1.343
702.518,1.344
702.779,1.344
703.041,1.354
703.302,1.366
703.563,1.367
703.825,1.355
704.086,1.344
704.348,1.340
704.609,1.341
704.871,1.350
705.132,1.362
705.393,1.362
705.655,1.357
705.916,1.354
706.177,1.355
706.439,1.355
706.700,1.351
706.961,1.348
707.223,1.342
707.484,1.326
707.745,1.311
708.007,1.299
708.268,1.293
708.529,1.285
708.790,1.269
709.052,1.260
709.313,1.259
709.574,1.268
709.835,1.278
710.097,1.273
710.358,1.258
710.619,1.241
710.881,1.231
711.142,1.226
711.403,1.225
711.664,1.222
711.926,1.217
712.187,1.220
712.448,1.228
712.709,1.241
712.970,1.247
713.232,1.249
713.493,1.251
713.754,1.251
714.015,1.256
714.277,1.265
714.538,1.275
714.799,1.285
715.060,1.290
715.322,1.292
715.583,1.284
715.844,1.270
716.105,1.252
716.367,1.242
716.628,1.243
716.889,1.250
717.150,1.249
717.411,1.243
717.673,1.243
717.934,1.248
718.195,1.254
718.457,1.250
718.718,1.241
718.979,1.236
719.240,1.236
719.502,1.241
719.763,1.247
720.024,1.254
720.286,1.256
720.547,1.254
720.808,1.248
721.069,1.246
721.331,1.246
721.592,1.251
721.853,1.252
722.115,1.254
722.376,1.257
722.638,1.256
722.899,1.253
723.160,1.247
723.422,1.242
723.683,1.240
723.944,1.241
724.206,1.244
724.467,1.246
724.729,1.248
724.990,1.255
725.252,1.260
725.513,1.253
725.775,1.238
726.036,1.227
726.298,1.231
726.559,1.240
726.821,1.242
727.082,1.239
727.344,1.234
727.605,1.232
727.867,1.229
728.128,1.233
728.390,1.236
728.652,1.245
728.913,1.255
729.175,1.263
729.436,1.266
729.698,1.269
729.960,1.269
730.221,1.262
730.483,1.247
730.745,1.241
731.007,1.240
731.268,1.243
731.530,1.241
731.792,1.239
732.054,1.240
732.315,1.244
732.577,1.248
732.839,1.243
733.101,1.233
733.363,1.223
733.625,1.221
733.887,1.224
734.149,1.229
734.411,1.239
734.673,1.247
734.935,1.249
735.197,1.245
735.459,1.247
735.721,1.252
735.983,1.250
736.245,1.238
736.507,1.235
736.769,1.242
737.031,1.247
737.293,1.242
737.555,1.233
737.818,1.227
738.080,1.225
738.342,1.224
738.604,1.225
738.867,1.227
739.129,1.228
739.391,1.226
739.654,1.226
739.916,1.227
740.178,1.232
740.441,1.240
740.703,1.242
740.966,1.240
741.228,1.235
741.491,1.231
741.753,1.233
742.016,1.232
742.278,1.233
742.541,1.232
742.804,1.237
743.066,1.247
743.329,1.254
743.592,1.255
743.854,1.254
744.117,1.256
744.380,1.260
744.643,1.257
744.905,1.247
745.168,1.240
745.431,1.233
745.694,1.228
745.957,1.224
746.220,1.223
746.483,1.224
746.746,1.228
747.009,1.239
