Wavelength (nm),Intensity Source #90,,C:/Users/Brend/Desktop/LED Spectras v2/Spectrometer Data.sp,,,Source #90,
379.792,1.791,,2018-06-14 09:52:44,,Integration Time,123 ms,
380.000,1.790,,Analyze Light,,Number of Scans to Average,25,
380.209,1.791,,,,Smoothing,1,
380.418,1.801
380.627,1.814
380.837,1.827
381.048,1.834
381.259,1.833
381.471,1.827
381.683,1.825
381.896,1.829
382.110,1.834
382.324,1.845
382.538,1.861
382.753,1.874
382.969,1.874
383.185,1.868
383.402,1.863
383.619,1.868
383.837,1.879
384.055,1.897
384.274,1.918
384.493,1.936
384.712,1.942
384.932,1.943
385.153,1.941
385.374,1.947
385.596,1.958
385.818,1.972
386.040,1.983
386.263,1.992
386.487,1.998
386.710,2.000
386.935,1.993
387.159,1.992
387.385,1.991
387.610,1.996
387.836,2.002
388.063,2.015
388.289,2.028
388.517,2.035
388.744,2.033
388.972,2.039
389.201,2.042
389.430,2.050
389.659,2.056
389.889,2.064
390.119,2.071
390.349,2.077
390.580,2.086
390.811,2.095
391.042,2.100
391.274,2.104
391.507,2.108
391.739,2.111
391.972,2.104
392.205,2.104
392.439,2.111
392.673,2.128
392.907,2.143
393.142,2.155
393.377,2.163
393.612,2.174
393.848,2.180
394.084,2.186
394.320,2.185
394.557,2.193
394.794,2.200
395.031,2.213
395.269,2.225
395.507,2.235
395.745,2.237
395.983,2.239
396.222,2.248
396.461,2.268
396.700,2.289
396.940,2.304
397.180,2.310
397.420,2.309
397.660,2.306
397.901,2.305
398.142,2.313
398.383,2.317
398.625,2.317
398.866,2.322
399.108,2.338
399.351,2.366
399.593,2.376
399.836,2.376
400.079,2.366
400.322,2.366
400.566,2.364
400.809,2.367
401.053,2.371
401.298,2.376
401.542,2.379
401.787,2.386
402.031,2.396
402.277,2.409
402.522,2.414
402.767,2.421
403.013,2.417
403.259,2.421
403.505,2.425
403.752,2.434
403.998,2.441
404.245,2.453
404.492,2.463
404.739,2.471
404.986,2.478
405.234,2.491
405.482,2.498
405.730,2.495
405.978,2.492
406.226,2.492
406.475,2.493
406.723,2.500
406.972,2.510
407.221,2.524
407.470,2.530
407.720,2.538
407.969,2.537
408.219,2.546
408.469,2.552
408.719,2.563
408.969,2.569
409.219,2.579
409.470,2.588
409.720,2.597
409.971,2.606
410.222,2.620
410.473,2.627
410.724,2.625
410.976,2.623
411.227,2.630
411.479,2.639
411.731,2.647
411.983,2.646
412.235,2.652
412.487,2.656
412.740,2.667
412.992,2.668
413.245,2.673
413.497,2.677
413.750,2.688
414.003,2.689
414.257,2.689
414.510,2.687
414.763,2.697
415.017,2.708
415.270,2.720
415.524,2.724
415.778,2.729
416.032,2.730
416.286,2.739
416.540,2.746
416.794,2.760
417.049,2.765
417.303,2.771
417.558,2.774
417.812,2.775
418.067,2.774
418.322,2.774
418.577,2.777
418.832,2.776
419.088,2.766
419.343,2.766
419.598,2.764
419.854,2.774
420.109,2.779
420.365,2.791
420.621,2.793
420.876,2.800
421.132,2.803
421.388,2.807
421.645,2.804
421.901,2.807
422.157,2.813
422.413,2.820
422.670,2.821
422.926,2.822
423.183,2.818
423.439,2.828
423.696,2.838
423.953,2.869
424.210,2.894
424.467,2.912
424.724,2.912
424.981,2.909
425.238,2.916
425.495,2.944
425.753,2.970
426.010,2.993
426.267,3.007
426.525,3.037
426.782,3.069
427.040,3.109
427.298,3.149
427.555,3.196
427.813,3.232
428.071,3.269
428.329,3.305
428.587,3.354
428.845,3.403
429.103,3.456
429.361,3.507
429.619,3.566
429.878,3.626
430.136,3.704
430.394,3.782
430.653,3.874
430.911,3.965
431.170,4.065
431.428,4.158
431.687,4.257
431.946,4.357
432.204,4.471
432.463,4.596
432.722,4.733
432.981,4.873
433.240,5.024
433.499,5.175
433.758,5.340
434.017,5.496
434.276,5.663
434.535,5.829
434.794,6.015
435.053,6.213
435.312,6.426
435.572,6.636
435.831,6.859
436.090,7.094
436.350,7.350
436.609,7.617
436.869,7.895
437.128,8.178
437.388,8.462
437.647,8.752
437.907,9.071
438.166,9.397
438.426,9.739
438.686,10.076
438.946,10.438
439.205,10.830
439.465,11.252
439.725,11.693
439.985,12.146
440.245,12.594
440.505,13.057
440.765,13.525
441.025,14.014
441.285,14.508
441.545,15.020
441.805,15.560
442.065,16.136
442.325,16.744
442.585,17.379
442.846,18.032
443.106,18.719
443.366,19.430
443.626,20.183
443.887,20.957
444.147,21.772
444.407,22.611
444.668,23.489
444.928,24.405
445.189,25.362
445.449,26.358
445.710,27.392
445.970,28.476
446.231,29.623
446.491,30.826
446.752,32.092
447.012,33.404
447.273,34.770
447.534,36.158
447.794,37.594
448.055,39.078
448.316,40.657
448.577,42.318
448.837,44.051
449.098,45.832
449.359,47.655
449.620,49.515
449.881,51.432
450.142,53.385
450.403,55.384
450.664,57.429
450.924,59.536
451.185,61.700
451.446,63.890
451.707,66.091
451.969,68.316
452.230,70.545
452.491,72.777
452.752,74.965
453.013,77.108
453.274,79.190
453.535,81.176
453.796,82.979
454.058,84.521
454.319,85.790
454.580,86.838
454.841,87.726
455.103,88.503
455.364,89.186
455.625,89.798
455.887,90.335
456.148,90.800
456.409,91.188
456.671,91.496
456.932,91.730
457.194,91.898
457.455,92.002
457.716,92.053
457.978,92.059
458.239,92.019
458.501,91.935
458.763,91.802
459.024,91.626
459.286,91.393
459.547,91.101
459.809,90.732
460.071,90.293
460.332,89.776
460.594,89.180
460.856,88.512
461.117,87.753
461.379,86.905
461.641,85.903
461.903,84.716
462.164,83.318
462.426,81.726
462.688,80.000
462.950,78.196
463.212,76.378
463.474,74.555
463.736,72.748
463.998,70.976
464.260,69.262
464.522,67.598
464.784,65.969
465.046,64.376
465.308,62.851
465.570,61.403
465.832,60.012
466.094,58.667
466.356,57.364
466.618,56.115
466.880,54.908
467.142,53.757
467.405,52.663
467.667,51.637
467.929,50.648
468.191,49.716
468.454,48.806
468.716,47.936
468.978,47.059
469.241,46.197
469.503,45.352
469.765,44.552
470.028,43.785
470.290,43.051
470.552,42.336
470.815,41.644
471.077,40.939
471.340,40.237
471.602,39.524
471.865,38.830
472.128,38.129
472.390,37.437
472.653,36.742
472.915,36.026
473.178,35.291
473.441,34.538
473.703,33.789
473.966,33.032
474.229,32.274
474.492,31.520
474.755,30.777
475.017,30.045
475.280,29.322
475.543,28.595
475.806,27.856
476.069,27.109
476.332,26.373
476.595,25.648
476.858,24.938
477.121,24.242
477.384,23.558
477.647,22.898
477.910,22.245
478.173,21.620
478.436,21.000
478.699,20.400
478.962,19.819
479.226,19.271
479.489,18.742
479.752,18.225
480.015,17.704
480.279,17.191
480.542,16.694
480.805,16.222
481.069,15.761
481.332,15.318
481.595,14.896
481.859,14.523
482.122,14.156
482.386,13.795
482.649,13.432
482.913,13.092
483.177,12.752
483.440,12.422
483.704,12.105
483.967,11.829
484.231,11.570
484.495,11.327
484.759,11.073
485.022,10.823
485.286,10.565
485.550,10.321
485.814,10.072
486.078,9.835
486.342,9.593
486.606,9.366
486.869,9.137
487.133,8.929
487.397,8.732
487.662,8.554
487.926,8.362
488.190,8.170
488.454,7.961
488.718,7.764
488.982,7.555
489.246,7.368
489.511,7.178
489.775,7.000
490.039,6.820
490.304,6.646
490.568,6.469
490.832,6.298
491.097,6.136
491.361,5.990
491.626,5.838
491.890,5.688
492.155,5.535
492.419,5.401
492.684,5.256
492.949,5.111
493.213,4.960
493.478,4.832
493.743,4.694
494.008,4.549
494.272,4.399
494.537,4.282
494.802,4.179
495.067,4.090
495.332,3.992
495.597,3.895
495.862,3.789
496.127,3.695
496.392,3.601
496.657,3.511
496.922,3.415
497.187,3.330
497.452,3.258
497.718,3.202
497.983,3.135
498.248,3.066
498.513,2.986
498.779,2.932
499.044,2.882
499.310,2.832
499.575,2.765
499.841,2.706
500.106,2.651
500.372,2.602
500.637,2.551
500.903,2.515
501.168,2.477
501.434,2.439
501.700,2.391
501.966,2.354
502.231,2.323
502.497,2.298
502.763,2.266
503.029,2.232
503.295,2.199
503.561,2.174
503.827,2.156
504.093,2.140
504.359,2.115
504.625,2.090
504.891,2.059
505.157,2.039
505.423,2.012
505.690,1.986
505.956,1.961
506.222,1.944
506.489,1.939
506.755,1.935
507.021,1.928
507.288,1.916
507.554,1.897
507.821,1.881
508.087,1.862
508.354,1.855
508.621,1.846
508.887,1.835
509.154,1.821
509.421,1.807
509.687,1.791
509.954,1.774
510.221,1.759
510.488,1.754
510.755,1.749
511.022,1.747
511.289,1.734
511.556,1.720
511.823,1.705
512.090,1.700
512.357,1.694
512.624,1.687
512.891,1.675
513.159,1.662
513.426,1.647
513.693,1.637
513.960,1.634
514.228,1.636
514.495,1.636
514.763,1.630
515.030,1.617
515.298,1.603
515.565,1.596
515.833,1.592
516.100,1.588
516.368,1.585
516.636,1.578
516.904,1.573
517.171,1.558
517.439,1.551
517.707,1.544
517.975,1.543
518.243,1.544
518.511,1.538
518.779,1.523
519.047,1.515
519.315,1.514
519.583,1.515
519.851,1.501
520.119,1.486
520.387,1.479
520.656,1.475
520.924,1.476
521.192,1.481
521.461,1.486
521.729,1.490
521.997,1.490
522.266,1.486
522.534,1.479
522.803,1.475
523.071,1.472
523.340,1.466
523.609,1.454
523.877,1.446
524.146,1.444
524.415,1.446
524.684,1.449
524.952,1.448
525.221,1.448
525.490,1.454
525.759,1.461
526.028,1.461
526.297,1.452
526.566,1.444
526.835,1.444
527.104,1.447
527.373,1.449
527.642,1.444
527.912,1.435
528.181,1.425
528.450,1.421
528.719,1.423
528.989,1.431
529.258,1.441
529.528,1.442
529.797,1.435
530.067,1.430
530.336,1.425
530.606,1.418
530.875,1.406
531.145,1.403
531.414,1.406
531.684,1.412
531.954,1.413
532.224,1.409
532.493,1.397
532.763,1.389
533.033,1.390
533.303,1.400
533.573,1.409
533.843,1.405
534.113,1.400
534.383,1.394
534.653,1.396
534.923,1.400
535.193,1.406
535.463,1.413
535.733,1.416
536.004,1.417
536.274,1.415
536.544,1.409
536.814,1.401
537.085,1.395
537.355,1.397
537.626,1.406
537.896,1.413
538.166,1.413
538.437,1.409
538.707,1.403
538.978,1.401
539.249,1.407
539.519,1.411
539.790,1.406
540.061,1.400
540.331,1.407
540.602,1.420
540.873,1.429
541.144,1.428
541.414,1.424
541.685,1.420
541.956,1.419
542.227,1.416
542.498,1.409
542.769,1.403
543.040,1.405
543.311,1.417
543.582,1.428
543.853,1.433
544.124,1.437
544.396,1.439
544.667,1.442
544.938,1.438
545.209,1.421
545.480,1.407
545.752,1.399
546.023,1.402
546.294,1.399
546.566,1.392
546.837,1.383
547.109,1.380
547.380,1.379
547.652,1.376
547.923,1.374
548.195,1.375
548.466,1.383
548.738,1.393
549.009,1.394
549.281,1.389
549.553,1.376
549.824,1.363
550.096,1.356
550.368,1.357
550.640,1.362
550.911,1.371
551.183,1.386
551.455,1.405
551.727,1.414
551.999,1.407
552.271,1.389
552.543,1.374
552.815,1.367
553.087,1.372
553.359,1.380
553.631,1.383
553.903,1.382
554.175,1.383
554.447,1.388
554.719,1.389
554.991,1.386
555.263,1.381
555.535,1.373
555.808,1.367
556.080,1.361
556.352,1.360
556.624,1.359
556.897,1.358
557.169,1.358
557.441,1.356
557.714,1.355
557.986,1.355
558.258,1.356
558.531,1.365
558.803,1.373
559.076,1.378
559.348,1.370
559.621,1.360
559.893,1.354
560.166,1.352
560.438,1.351
560.711,1.349
560.983,1.350
561.256,1.354
561.528,1.361
561.801,1.367
562.074,1.370
562.346,1.375
562.619,1.379
562.892,1.380
563.164,1.375
563.437,1.372
563.710,1.369
563.983,1.364
564.255,1.358
564.528,1.361
564.801,1.371
565.074,1.376
565.346,1.368
565.619,1.357
565.892,1.351
566.165,1.348
566.438,1.342
566.711,1.337
566.984,1.337
567.257,1.338
567.529,1.341
567.802,1.353
568.075,1.365
568.348,1.372
568.621,1.371
568.894,1.368
569.167,1.367
569.440,1.362
569.713,1.353
569.986,1.346
570.259,1.342
570.532,1.346
570.805,1.349
571.078,1.348
571.351,1.347
571.625,1.346
571.898,1.345
572.171,1.341
572.444,1.337
572.717,1.342
572.990,1.349
573.263,1.347
573.536,1.336
573.809,1.322
574.083,1.314
574.356,1.318
574.629,1.330
574.902,1.339
575.175,1.339
575.448,1.330
575.721,1.323
575.995,1.323
576.268,1.329
576.541,1.343
576.814,1.354
577.087,1.362
577.361,1.364
577.634,1.361
577.907,1.353
578.180,1.341
578.453,1.335
578.727,1.335
579.000,1.335
579.273,1.336
579.546,1.343
579.820,1.354
580.093,1.358
580.366,1.354
580.639,1.344
580.913,1.339
581.186,1.336
581.459,1.335
581.732,1.329
582.005,1.322
582.279,1.319
582.552,1.323
582.825,1.328
583.098,1.331
583.372,1.333
583.645,1.335
583.918,1.338
584.191,1.337
584.464,1.333
584.738,1.330
585.011,1.328
585.284,1.327
585.557,1.323
585.831,1.324
586.104,1.332
586.377,1.348
586.650,1.354
586.923,1.351
587.196,1.342
587.470,1.335
587.743,1.332
588.016,1.333
588.289,1.338
588.562,1.348
588.835,1.351
589.109,1.344
589.382,1.332
589.655,1.322
589.928,1.317
590.201,1.316
590.474,1.326
590.747,1.339
591.020,1.348
591.293,1.349
591.567,1.347
591.840,1.342
592.113,1.336
592.386,1.325
592.659,1.318
592.932,1.317
593.205,1.321
593.478,1.321
593.751,1.315
594.024,1.311
594.297,1.309
594.570,1.311
594.843,1.317
595.116,1.326
595.389,1.331
595.662,1.327
595.934,1.327
596.207,1.332
596.480,1.344
596.753,1.356
597.026,1.358
597.299,1.351
597.572,1.341
597.844,1.334
598.117,1.327
598.390,1.321
598.663,1.318
598.936,1.318
599.208,1.318
599.481,1.320
599.754,1.323
600.026,1.317
600.299,1.308
600.572,1.303
600.844,1.305
601.117,1.303
601.390,1.300
601.662,1.299
601.935,1.300
602.207,1.303
602.480,1.310
602.752,1.313
603.025,1.312
603.297,1.310
603.570,1.316
603.842,1.326
604.115,1.330
604.387,1.332
604.660,1.329
604.932,1.327
605.204,1.330
605.477,1.339
605.749,1.350
606.021,1.356
606.294,1.355
606.566,1.346
606.838,1.340
607.110,1.342
607.383,1.350
607.655,1.356
607.927,1.365
608.199,1.374
608.471,1.380
608.743,1.375
609.015,1.364
609.287,1.355
609.559,1.352
609.831,1.350
610.103,1.348
610.375,1.345
610.647,1.342
610.919,1.338
611.191,1.338
611.463,1.344
611.735,1.349
612.007,1.345
612.278,1.339
612.550,1.336
612.822,1.341
613.094,1.344
613.365,1.342
613.637,1.341
613.909,1.341
614.180,1.344
614.452,1.340
614.723,1.335
614.995,1.327
615.266,1.325
615.538,1.330
615.809,1.337
616.081,1.332
616.352,1.323
616.623,1.317
616.895,1.316
617.166,1.313
617.437,1.310
617.709,1.313
617.980,1.319
618.251,1.324
618.522,1.327
618.793,1.337
619.065,1.351
619.336,1.352
619.607,1.344
619.878,1.338
620.149,1.344
620.420,1.348
620.691,1.342
620.962,1.338
621.232,1.339
621.503,1.337
621.774,1.333
622.045,1.328
622.316,1.334
622.586,1.343
622.857,1.352
623.128,1.353
623.398,1.349
623.669,1.341
623.940,1.332
624.210,1.323
624.481,1.323
624.751,1.324
625.021,1.324
625.292,1.320
625.562,1.318
625.833,1.314
626.103,1.308
626.373,1.303
626.643,1.304
626.914,1.305
627.184,1.308
627.454,1.310
627.724,1.312
627.994,1.315
628.264,1.316
628.534,1.313
628.804,1.310
629.074,1.316
629.344,1.325
629.614,1.326
629.884,1.317
630.154,1.305
630.424,1.296
630.693,1.290
630.963,1.285
631.233,1.278
631.502,1.278
631.772,1.287
632.041,1.303
632.311,1.311
632.581,1.313
632.850,1.311
633.119,1.303
633.389,1.293
633.658,1.285
633.928,1.287
634.197,1.295
634.466,1.308
634.735,1.316
635.004,1.314
635.274,1.306
635.543,1.297
635.812,1.294
636.081,1.295
636.350,1.299
636.619,1.303
636.888,1.304
637.157,1.306
637.426,1.312
637.694,1.315
637.963,1.314
638.232,1.310
638.501,1.306
638.769,1.310
639.038,1.314
639.307,1.321
639.575,1.323
639.844,1.316
640.112,1.311
640.381,1.304
640.649,1.305
640.917,1.305
641.186,1.305
641.454,1.306
641.722,1.305
641.991,1.305
642.259,1.298
642.527,1.298
642.795,1.298
643.063,1.294
643.331,1.289
643.599,1.288
643.867,1.296
644.135,1.303
644.403,1.310
644.671,1.313
644.939,1.315
645.206,1.316
645.474,1.317
645.742,1.310
646.009,1.297
646.277,1.288
646.545,1.289
646.812,1.298
647.080,1.307
647.347,1.312
647.615,1.311
647.882,1.301
648.149,1.293
648.417,1.290
648.684,1.297
648.951,1.306
649.219,1.314
649.486,1.315
649.753,1.312
650.020,1.306
650.287,1.299
650.554,1.295
650.821,1.293
651.088,1.291
651.355,1.295
651.622,1.298
651.889,1.302
652.155,1.299
652.422,1.299
652.689,1.300
652.956,1.304
653.222,1.311
653.489,1.323
653.755,1.331
654.022,1.326
654.288,1.307
654.555,1.295
654.821,1.295
655.088,1.307
655.354,1.318
655.620,1.327
655.887,1.329
656.153,1.331
656.419,1.331
656.685,1.332
656.951,1.331
657.217,1.327
657.483,1.319
657.749,1.309
658.015,1.302
658.281,1.298
658.547,1.293
658.813,1.287
659.079,1.281
659.345,1.278
659.610,1.279
659.876,1.284
660.142,1.291
660.407,1.296
660.673,1.300
660.939,1.305
661.204,1.304
661.470,1.301
661.735,1.299
662.000,1.302
662.266,1.304
662.531,1.303
662.796,1.301
663.062,1.298
663.327,1.294
663.592,1.294
663.857,1.294
664.122,1.297
664.388,1.296
664.653,1.300
664.918,1.303
665.183,1.302
665.448,1.303
665.712,1.306
665.977,1.313
666.242,1.312
666.507,1.301
666.772,1.287
667.037,1.276
667.301,1.276
667.566,1.283
667.831,1.290
668.095,1.297
668.360,1.299
668.624,1.298
668.889,1.298
669.153,1.293
669.418,1.290
669.682,1.285
669.946,1.288
670.211,1.296
670.475,1.304
670.739,1.313
671.004,1.321
671.268,1.341
671.532,1.362
671.796,1.359
672.060,1.343
672.324,1.323
672.588,1.326
672.852,1.337
673.116,1.365
673.380,1.388
673.644,1.371
673.908,1.333
674.172,1.300
674.436,1.300
674.700,1.303
674.963,1.307
675.227,1.308
675.491,1.305
675.754,1.299
676.018,1.295
676.282,1.300
676.545,1.303
676.809,1.302
677.072,1.297
677.336,1.295
677.599,1.296
677.863,1.295
678.126,1.298
678.389,1.305
678.653,1.314
678.916,1.314
679.179,1.303
679.442,1.299
679.706,1.299
679.969,1.304
680.232,1.307
680.495,1.314
680.758,1.320
681.021,1.319
681.284,1.307
681.547,1.297
681.810,1.296
682.073,1.305
682.336,1.314
682.599,1.315
682.862,1.312
683.125,1.311
683.388,1.312
683.651,1.315
683.913,1.314
684.176,1.304
684.439,1.291
684.702,1.279
684.964,1.277
685.227,1.281
685.490,1.290
685.752,1.302
686.015,1.304
686.277,1.301
686.540,1.293
686.802,1.289
687.065,1.289
687.327,1.291
687.590,1.292
687.852,1.287
688.115,1.275
688.377,1.269
688.639,1.270
688.902,1.277
689.164,1.285
689.426,1.295
689.689,1.302
689.951,1.304
690.213,1.303
690.475,1.301
690.737,1.297
691.000,1.290
691.262,1.288
691.524,1.295
691.786,1.308
692.048,1.318
692.310,1.316
692.572,1.301
692.834,1.286
693.096,1.284
693.358,1.294
693.620,1.308
693.882,1.315
694.144,1.316
694.406,1.309
694.668,1.303
694.930,1.295
695.192,1.291
695.453,1.293
695.715,1.295
695.977,1.293
696.239,1.283
696.501,1.279
696.762,1.284
697.024,1.292
697.286,1.295
697.548,1.295
697.809,1.294
698.071,1.292
698.333,1.288
698.594,1.287
698.856,1.291
699.118,1.297
699.379,1.302
699.641,1.307
699.902,1.310
700.164,1.307
700.426,1.298
700.687,1.287
700.949,1.284
701.210,1.283
701.472,1.283
701.733,1.280
701.995,1.281
702.256,1.282
702.518,1.281
702.779,1.281
703.041,1.292
703.302,1.304
703.563,1.306
703.825,1.300
704.086,1.295
704.348,1.296
704.609,1.296
704.871,1.301
705.132,1.307
705.393,1.304
705.655,1.299
705.916,1.296
706.177,1.296
706.439,1.295
706.700,1.293
706.961,1.293
707.223,1.291
707.484,1.280
707.745,1.270
708.007,1.259
708.268,1.251
708.529,1.237
708.790,1.221
709.052,1.212
709.313,1.213
709.574,1.218
709.835,1.223
710.097,1.218
710.358,1.206
710.619,1.193
710.881,1.185
711.142,1.182
711.403,1.181
711.664,1.179
711.926,1.176
712.187,1.176
712.448,1.179
712.709,1.187
712.970,1.196
713.232,1.203
713.493,1.204
713.754,1.203
714.015,1.206
714.277,1.214
714.538,1.224
714.799,1.231
715.060,1.230
715.322,1.225
715.583,1.214
715.844,1.204
716.105,1.196
716.367,1.193
716.628,1.195
716.889,1.196
717.150,1.193
717.411,1.187
717.673,1.189
717.934,1.195
718.195,1.202
718.457,1.196
718.718,1.187
718.979,1.184
719.240,1.190
719.502,1.199
719.763,1.204
720.024,1.207
720.286,1.209
720.547,1.203
720.808,1.196
721.069,1.188
721.331,1.191
721.592,1.199
721.853,1.208
722.115,1.209
722.376,1.204
722.638,1.198
722.899,1.192
723.160,1.187
723.422,1.185
723.683,1.186
723.944,1.190
724.206,1.188
724.467,1.186
724.729,1.185
724.990,1.192
725.252,1.197
725.513,1.191
725.775,1.180
726.036,1.174
726.298,1.176
726.559,1.183
726.821,1.187
727.082,1.190
727.344,1.189
727.605,1.186
727.867,1.183
728.128,1.183
728.390,1.186
728.652,1.196
728.913,1.206
729.175,1.211
729.436,1.210
729.698,1.207
729.960,1.203
730.221,1.198
730.483,1.188
730.745,1.186
731.007,1.186
731.268,1.188
731.530,1.187
731.792,1.187
732.054,1.188
732.315,1.189
732.577,1.188
732.839,1.183
733.101,1.178
733.363,1.174
733.625,1.175
733.887,1.179
734.149,1.183
734.411,1.186
734.673,1.187
734.935,1.185
735.197,1.182
735.459,1.185
735.721,1.188
735.983,1.187
736.245,1.181
736.507,1.182
736.769,1.189
737.031,1.196
737.293,1.194
737.555,1.186
737.818,1.178
738.080,1.172
738.342,1.168
738.604,1.168
738.867,1.169
739.129,1.168
739.391,1.164
739.654,1.165
739.916,1.171
740.178,1.181
740.441,1.191
740.703,1.193
740.966,1.189
741.228,1.181
741.491,1.178
741.753,1.181
742.016,1.184
742.278,1.185
742.541,1.185
742.804,1.186
743.066,1.190
743.329,1.191
743.592,1.191
743.854,1.192
744.117,1.198
744.380,1.203
744.643,1.199
744.905,1.190
745.168,1.185
745.431,1.183
745.694,1.182
745.957,1.178
746.220,1.177
746.483,1.178
746.746,1.181
747.009,1.188
