Wavelength (nm),Intensity B36.1,,D:/Lab/LED Spectras v2/Spectrometer Data (Blue 25.3-37).sp,,,B36.1,
379.792,1.942,,2018-06-14 15:24:45,,Integration Time,119 ms,
380.000,1.937,,Analyze Light,,Number of Scans to Average,25,
380.209,1.935,,,,Smoothing,1,
380.418,1.948
380.627,1.966
380.837,1.985
381.048,1.995
381.259,1.996
381.471,1.994
381.683,1.996
381.896,2.006
382.110,2.013
382.324,2.023
382.538,2.033
382.753,2.042
382.969,2.038
383.185,2.030
383.402,2.023
383.619,2.030
383.837,2.041
384.055,2.058
384.274,2.075
384.493,2.086
384.712,2.092
384.932,2.094
385.153,2.100
385.374,2.105
385.596,2.110
385.818,2.121
386.040,2.138
386.263,2.158
386.487,2.168
386.710,2.168
386.935,2.155
387.159,2.146
387.385,2.140
387.610,2.140
387.836,2.140
388.063,2.142
388.289,2.146
388.517,2.149
388.744,2.153
388.972,2.168
389.201,2.184
389.430,2.203
389.659,2.210
389.889,2.219
390.119,2.225
390.349,2.233
390.580,2.241
390.811,2.245
391.042,2.248
391.274,2.246
391.507,2.248
391.739,2.247
391.972,2.243
392.205,2.242
392.439,2.248
392.673,2.262
392.907,2.280
393.142,2.297
393.377,2.310
393.612,2.320
393.848,2.325
394.084,2.331
394.320,2.333
394.557,2.339
394.794,2.344
395.031,2.351
395.269,2.355
395.507,2.366
395.745,2.374
395.983,2.384
396.222,2.389
396.461,2.405
396.700,2.422
396.940,2.434
397.180,2.434
397.420,2.425
397.660,2.420
397.901,2.419
398.142,2.425
398.383,2.430
398.625,2.435
398.866,2.444
399.108,2.462
399.351,2.491
399.593,2.503
399.836,2.506
400.079,2.491
400.322,2.482
400.566,2.475
400.809,2.476
401.053,2.481
401.298,2.490
401.542,2.502
401.787,2.520
402.031,2.534
402.277,2.544
402.522,2.544
402.767,2.549
403.013,2.545
403.259,2.549
403.505,2.549
403.752,2.554
403.998,2.553
404.245,2.564
404.492,2.584
404.739,2.602
404.986,2.610
405.234,2.614
405.482,2.614
405.730,2.612
405.978,2.611
406.226,2.610
406.475,2.606
406.723,2.603
406.972,2.609
407.221,2.624
407.470,2.635
407.720,2.644
407.969,2.645
408.219,2.657
408.469,2.668
408.719,2.683
408.969,2.687
409.219,2.693
409.470,2.698
409.720,2.708
409.971,2.714
410.222,2.728
410.473,2.734
410.724,2.740
410.976,2.742
411.227,2.755
411.479,2.766
411.731,2.779
411.983,2.777
412.235,2.779
412.487,2.773
412.740,2.781
412.992,2.788
413.245,2.800
413.497,2.802
413.750,2.802
414.003,2.797
414.257,2.794
414.510,2.792
414.763,2.804
415.017,2.815
415.270,2.825
415.524,2.825
415.778,2.828
416.032,2.828
416.286,2.834
416.540,2.836
416.794,2.846
417.049,2.852
417.303,2.865
417.558,2.873
417.812,2.877
418.067,2.876
418.322,2.874
418.577,2.870
418.832,2.865
419.088,2.855
419.343,2.856
419.598,2.850
419.854,2.857
420.109,2.860
420.365,2.880
420.621,2.888
420.876,2.904
421.132,2.910
421.388,2.912
421.645,2.904
421.901,2.906
422.157,2.912
422.413,2.925
422.670,2.930
422.926,2.939
423.183,2.934
423.439,2.943
423.696,2.959
423.953,2.999
424.210,3.028
424.467,3.043
424.724,3.044
424.981,3.041
425.238,3.052
425.495,3.077
425.753,3.105
426.010,3.134
426.267,3.155
426.525,3.195
426.782,3.232
427.040,3.276
427.298,3.315
427.555,3.363
427.813,3.403
428.071,3.448
428.329,3.493
428.587,3.544
428.845,3.598
429.103,3.658
429.361,3.719
429.619,3.784
429.878,3.850
430.136,3.930
430.394,4.006
430.653,4.100
430.911,4.200
431.170,4.313
431.428,4.420
431.687,4.539
431.946,4.657
432.204,4.785
432.463,4.908
432.722,5.040
432.981,5.172
433.240,5.324
433.499,5.489
433.758,5.678
434.017,5.851
434.276,6.031
434.535,6.207
434.794,6.406
435.053,6.612
435.312,6.836
435.572,7.065
435.831,7.311
436.090,7.569
436.350,7.844
436.609,8.124
436.869,8.408
437.128,8.695
437.388,9.006
437.647,9.331
437.907,9.683
438.166,10.028
438.426,10.380
438.686,10.748
438.946,11.144
439.205,11.556
439.465,11.985
439.725,12.443
439.985,12.920
440.245,13.394
440.505,13.880
440.765,14.374
441.025,14.890
441.285,15.418
441.545,15.971
441.805,16.557
442.065,17.172
442.325,17.812
442.585,18.491
442.846,19.190
443.106,19.935
443.366,20.692
443.626,21.492
443.887,22.322
444.147,23.207
444.407,24.123
444.668,25.074
444.928,26.059
445.189,27.105
445.449,28.195
445.710,29.338
445.970,30.532
446.231,31.800
446.491,33.142
446.752,34.540
447.012,35.986
447.273,37.484
447.534,39.039
447.794,40.646
448.055,42.315
448.316,44.067
448.577,45.909
448.837,47.825
449.098,49.799
449.359,51.815
449.620,53.848
449.881,55.891
450.142,57.970
450.403,60.118
450.664,62.349
450.924,64.612
451.185,66.897
451.446,69.163
451.707,71.422
451.969,73.665
452.230,75.870
452.491,78.031
452.752,80.095
453.013,82.033
453.274,83.766
453.535,85.249
453.796,86.468
454.058,87.475
454.319,88.345
454.580,89.107
454.841,89.773
455.103,90.340
455.364,90.820
455.625,91.226
455.887,91.550
456.148,91.808
456.409,91.995
456.671,92.132
456.932,92.213
457.194,92.240
457.455,92.208
457.716,92.128
457.978,92.009
458.239,91.845
458.501,91.643
458.763,91.392
459.024,91.088
459.286,90.708
459.547,90.262
459.809,89.736
460.071,89.124
460.332,88.421
460.594,87.637
460.856,86.754
461.117,85.723
461.379,84.507
461.641,83.104
461.903,81.542
462.164,79.883
462.426,78.173
462.688,76.446
462.950,74.706
463.212,72.974
463.474,71.269
463.736,69.592
463.998,67.964
464.260,66.395
464.522,64.891
464.784,63.449
465.046,62.053
465.308,60.731
465.570,59.468
465.832,58.262
466.094,57.105
466.356,56.005
466.618,54.934
466.880,53.870
467.142,52.833
467.405,51.849
467.667,50.941
467.929,50.057
468.191,49.187
468.454,48.332
468.716,47.498
468.978,46.677
469.241,45.835
469.503,45.009
469.765,44.208
470.028,43.436
470.290,42.676
470.552,41.931
470.815,41.189
471.077,40.445
471.340,39.692
471.602,38.945
471.865,38.200
472.128,37.462
472.390,36.739
472.653,36.018
472.915,35.297
473.178,34.560
473.441,33.823
473.703,33.066
473.966,32.311
474.229,31.543
474.492,30.797
474.755,30.024
475.017,29.279
475.280,28.526
475.543,27.818
475.806,27.094
476.069,26.379
476.332,25.650
476.595,24.945
476.858,24.264
477.121,23.599
477.384,22.948
477.647,22.307
477.910,21.691
478.173,21.098
478.436,20.515
478.699,19.966
478.962,19.435
479.226,18.940
479.489,18.446
479.752,17.964
480.015,17.476
480.279,17.006
480.542,16.554
480.805,16.128
481.069,15.705
481.332,15.300
481.595,14.912
481.859,14.569
482.122,14.223
482.386,13.888
482.649,13.536
482.913,13.202
483.177,12.870
483.440,12.550
483.704,12.245
483.967,11.972
484.231,11.722
484.495,11.488
484.759,11.243
485.022,10.987
485.286,10.718
485.550,10.457
485.814,10.191
486.078,9.944
486.342,9.702
486.606,9.488
486.869,9.281
487.133,9.086
487.397,8.891
487.662,8.701
487.926,8.499
488.190,8.301
488.454,8.088
488.718,7.887
488.982,7.679
489.246,7.487
489.511,7.294
489.775,7.113
490.039,6.927
490.304,6.748
490.568,6.565
490.832,6.391
491.097,6.222
491.361,6.072
491.626,5.922
491.890,5.778
492.155,5.629
492.419,5.495
492.684,5.348
492.949,5.203
493.213,5.055
493.478,4.930
493.743,4.795
494.008,4.652
494.272,4.506
494.537,4.390
494.802,4.289
495.067,4.203
495.332,4.110
495.597,4.025
495.862,3.926
496.127,3.831
496.392,3.730
496.657,3.633
496.922,3.538
497.187,3.462
497.452,3.397
497.718,3.347
497.983,3.290
498.248,3.233
498.513,3.158
498.779,3.096
499.044,3.036
499.310,2.980
499.575,2.914
499.841,2.856
500.106,2.808
500.372,2.767
500.637,2.724
500.903,2.698
501.168,2.671
501.434,2.640
501.700,2.586
501.966,2.537
502.231,2.491
502.497,2.458
502.763,2.420
503.029,2.386
503.295,2.359
503.561,2.338
503.827,2.323
504.093,2.301
504.359,2.275
504.625,2.250
504.891,2.227
505.157,2.211
505.423,2.186
505.690,2.155
505.956,2.126
506.222,2.110
506.489,2.110
506.755,2.112
507.021,2.106
507.288,2.095
507.554,2.074
507.821,2.057
508.087,2.038
508.354,2.031
508.621,2.024
508.887,2.007
509.154,1.988
509.421,1.972
509.687,1.956
509.954,1.938
510.221,1.925
510.488,1.923
510.755,1.924
511.022,1.925
511.289,1.910
511.556,1.892
511.823,1.878
512.090,1.881
512.357,1.878
512.624,1.870
512.891,1.854
513.159,1.842
513.426,1.829
513.693,1.819
513.960,1.814
514.228,1.811
514.495,1.807
514.763,1.803
515.030,1.795
515.298,1.785
515.565,1.780
515.833,1.775
516.100,1.772
516.368,1.765
516.636,1.761
516.904,1.760
517.171,1.754
517.439,1.751
517.707,1.745
517.975,1.742
518.243,1.742
518.511,1.739
518.779,1.728
519.047,1.724
519.315,1.722
519.583,1.722
519.851,1.710
520.119,1.699
520.387,1.695
520.656,1.695
520.924,1.696
521.192,1.696
521.461,1.695
521.729,1.697
521.997,1.699
522.266,1.699
522.534,1.696
522.803,1.697
523.071,1.694
523.340,1.687
523.609,1.676
523.877,1.667
524.146,1.663
524.415,1.663
524.684,1.663
524.952,1.655
525.221,1.646
525.490,1.647
525.759,1.656
526.028,1.661
526.297,1.654
526.566,1.645
526.835,1.641
527.104,1.645
527.373,1.651
527.642,1.651
527.912,1.642
528.181,1.631
528.450,1.624
528.719,1.629
528.989,1.641
529.258,1.651
529.528,1.653
529.797,1.644
530.067,1.637
530.336,1.631
530.606,1.628
530.875,1.621
531.145,1.619
531.414,1.619
531.684,1.623
531.954,1.625
532.224,1.624
532.493,1.613
532.763,1.606
533.033,1.607
533.303,1.615
533.573,1.621
533.843,1.611
534.113,1.602
534.383,1.593
534.653,1.595
534.923,1.601
535.193,1.609
535.463,1.619
535.733,1.623
536.004,1.624
536.274,1.621
536.544,1.613
536.814,1.603
537.085,1.594
537.355,1.598
537.626,1.612
537.896,1.626
538.166,1.632
538.437,1.628
538.707,1.621
538.978,1.618
539.249,1.622
539.519,1.627
539.790,1.621
540.061,1.614
540.331,1.618
540.602,1.633
540.873,1.643
541.144,1.645
541.414,1.638
541.685,1.630
541.956,1.625
542.227,1.620
542.498,1.614
542.769,1.611
543.040,1.617
543.311,1.629
543.582,1.638
543.853,1.641
544.124,1.637
544.396,1.635
544.667,1.635
544.938,1.632
545.209,1.614
545.480,1.602
545.752,1.598
546.023,1.609
546.294,1.610
546.566,1.604
546.837,1.590
547.109,1.584
547.380,1.583
547.652,1.586
547.923,1.586
548.195,1.591
548.466,1.600
548.738,1.611
549.009,1.610
549.281,1.604
549.553,1.592
549.824,1.578
550.096,1.568
550.368,1.564
550.640,1.566
550.911,1.570
551.183,1.582
551.455,1.600
551.727,1.615
551.999,1.613
552.271,1.599
552.543,1.584
552.815,1.576
553.087,1.581
553.359,1.589
553.631,1.595
553.903,1.595
554.175,1.599
554.447,1.609
554.719,1.616
554.991,1.611
555.263,1.603
555.535,1.594
555.808,1.585
556.080,1.576
556.352,1.571
556.624,1.571
556.897,1.571
557.169,1.572
557.441,1.570
557.714,1.564
557.986,1.561
558.258,1.556
558.531,1.565
558.803,1.574
559.076,1.584
559.348,1.578
559.621,1.564
559.893,1.559
560.166,1.563
560.438,1.565
560.711,1.560
560.983,1.557
561.256,1.559
561.528,1.569
561.801,1.579
562.074,1.588
562.346,1.596
562.619,1.603
562.892,1.599
563.164,1.587
563.437,1.581
563.710,1.580
563.983,1.573
564.255,1.560
564.528,1.562
564.801,1.578
565.074,1.590
565.346,1.583
565.619,1.574
565.892,1.576
566.165,1.574
566.438,1.563
566.711,1.547
566.984,1.544
567.257,1.545
567.529,1.552
567.802,1.565
568.075,1.576
568.348,1.573
568.621,1.569
568.894,1.565
569.167,1.566
569.440,1.557
569.713,1.543
569.986,1.537
570.259,1.535
570.532,1.543
570.805,1.551
571.078,1.557
571.351,1.560
571.625,1.562
571.898,1.555
572.171,1.545
572.444,1.536
572.717,1.546
572.990,1.561
573.263,1.562
573.536,1.550
573.809,1.532
574.083,1.524
574.356,1.532
574.629,1.553
574.902,1.567
575.175,1.566
575.448,1.547
575.721,1.531
575.995,1.521
576.268,1.524
576.541,1.538
576.814,1.554
577.087,1.565
577.361,1.567
577.634,1.564
577.907,1.546
578.180,1.526
578.453,1.515
578.727,1.520
579.000,1.527
579.273,1.535
579.546,1.549
579.820,1.566
580.093,1.573
580.366,1.563
580.639,1.542
580.913,1.530
581.186,1.527
581.459,1.529
581.732,1.517
582.005,1.509
582.279,1.505
582.552,1.514
582.825,1.523
583.098,1.531
583.372,1.539
583.645,1.538
583.918,1.542
584.191,1.541
584.464,1.546
584.738,1.544
585.011,1.541
585.284,1.535
585.557,1.531
585.831,1.535
586.104,1.546
586.377,1.565
586.650,1.575
586.923,1.578
587.196,1.575
587.470,1.567
587.743,1.560
588.016,1.551
588.289,1.551
588.562,1.556
588.835,1.559
589.109,1.551
589.382,1.540
589.655,1.532
589.928,1.529
590.201,1.524
590.474,1.528
590.747,1.538
591.020,1.553
591.293,1.558
591.567,1.556
591.840,1.543
592.113,1.535
592.386,1.525
592.659,1.518
592.932,1.516
593.205,1.523
593.478,1.531
593.751,1.531
594.024,1.524
594.297,1.512
594.570,1.503
594.843,1.506
595.116,1.520
595.389,1.530
595.662,1.528
595.934,1.531
596.207,1.541
596.480,1.556
596.753,1.565
597.026,1.560
597.299,1.550
597.572,1.542
597.844,1.537
598.117,1.527
598.390,1.516
598.663,1.511
598.936,1.520
599.208,1.528
599.481,1.536
599.754,1.538
600.026,1.528
600.299,1.513
600.572,1.503
600.844,1.501
601.117,1.498
601.390,1.496
601.662,1.496
601.935,1.495
602.207,1.493
602.480,1.498
602.752,1.509
603.025,1.511
603.297,1.509
603.570,1.510
603.842,1.523
604.115,1.530
604.387,1.535
604.660,1.530
604.932,1.528
605.204,1.533
605.477,1.545
605.749,1.559
606.021,1.566
606.294,1.568
606.566,1.556
606.838,1.554
607.110,1.556
607.383,1.566
607.655,1.572
607.927,1.578
608.199,1.585
608.471,1.586
608.743,1.576
609.015,1.563
609.287,1.554
609.559,1.556
609.831,1.563
610.103,1.564
610.375,1.559
610.647,1.545
610.919,1.532
611.191,1.527
611.463,1.530
611.735,1.532
612.007,1.525
612.278,1.515
612.550,1.507
612.822,1.511
613.094,1.519
613.365,1.523
613.637,1.528
613.909,1.532
614.180,1.540
614.452,1.540
614.723,1.536
614.995,1.531
615.266,1.526
615.538,1.534
615.809,1.540
616.081,1.538
616.352,1.527
616.623,1.523
616.895,1.524
617.166,1.523
617.437,1.517
617.709,1.515
617.980,1.523
618.251,1.533
618.522,1.542
618.793,1.556
619.065,1.573
619.336,1.572
619.607,1.556
619.878,1.544
620.149,1.549
620.420,1.553
620.691,1.546
620.962,1.541
621.232,1.543
621.503,1.537
621.774,1.526
622.045,1.520
622.316,1.528
622.586,1.542
622.857,1.557
623.128,1.564
623.398,1.564
623.669,1.556
623.940,1.542
624.210,1.529
624.481,1.529
624.751,1.532
625.021,1.532
625.292,1.524
625.562,1.522
625.833,1.520
626.103,1.518
626.373,1.509
626.643,1.508
626.914,1.509
627.184,1.517
627.454,1.523
627.724,1.528
627.994,1.530
628.264,1.528
628.534,1.514
628.804,1.505
629.074,1.508
629.344,1.521
629.614,1.525
629.884,1.518
630.154,1.505
630.424,1.493
630.693,1.479
630.963,1.466
631.233,1.456
631.502,1.459
631.772,1.476
632.041,1.496
632.311,1.510
632.581,1.516
632.850,1.514
633.119,1.505
633.389,1.488
633.658,1.478
633.928,1.481
634.197,1.494
634.466,1.509
634.735,1.519
635.004,1.518
635.274,1.512
635.543,1.509
635.812,1.508
636.081,1.503
636.350,1.495
636.619,1.491
636.888,1.493
637.157,1.498
637.426,1.505
637.694,1.510
637.963,1.511
638.232,1.507
638.501,1.501
638.769,1.499
639.038,1.503
639.307,1.512
639.575,1.521
639.844,1.516
640.112,1.509
640.381,1.497
640.649,1.495
640.917,1.498
641.186,1.498
641.454,1.500
641.722,1.497
641.991,1.496
642.259,1.489
642.527,1.487
642.795,1.485
643.063,1.480
643.331,1.474
643.599,1.474
643.867,1.487
644.135,1.497
644.403,1.512
644.671,1.519
644.939,1.524
645.206,1.524
645.474,1.527
645.742,1.522
646.009,1.505
646.277,1.493
646.545,1.493
646.812,1.507
647.080,1.520
647.347,1.530
647.615,1.529
647.882,1.513
648.149,1.496
648.417,1.485
648.684,1.491
648.951,1.502
649.219,1.513
649.486,1.515
649.753,1.511
650.020,1.500
650.287,1.490
650.554,1.483
650.821,1.481
651.088,1.481
651.355,1.487
651.622,1.488
651.889,1.491
652.155,1.487
652.422,1.485
652.689,1.491
652.956,1.494
653.222,1.503
653.489,1.519
653.755,1.533
654.022,1.530
654.288,1.510
654.555,1.497
654.821,1.501
655.088,1.514
655.354,1.521
655.620,1.525
655.887,1.524
656.153,1.531
656.419,1.535
656.685,1.533
656.951,1.527
657.217,1.518
657.483,1.507
657.749,1.496
658.015,1.495
658.281,1.499
658.547,1.497
658.813,1.489
659.079,1.480
659.345,1.475
659.610,1.475
659.876,1.474
660.142,1.476
660.407,1.481
660.673,1.488
660.939,1.494
661.204,1.492
661.470,1.487
661.735,1.484
662.000,1.490
662.266,1.494
662.531,1.492
662.796,1.487
663.062,1.482
663.327,1.481
663.592,1.480
663.857,1.478
664.122,1.477
664.388,1.473
664.653,1.476
664.918,1.484
665.183,1.492
665.448,1.498
665.712,1.502
665.977,1.508
666.242,1.505
666.507,1.487
666.772,1.467
667.037,1.455
667.301,1.459
667.566,1.469
667.831,1.480
668.095,1.490
668.360,1.495
668.624,1.491
668.889,1.488
669.153,1.483
669.418,1.483
669.682,1.483
669.946,1.488
670.211,1.502
670.475,1.514
670.739,1.529
671.004,1.539
671.268,1.561
671.532,1.584
671.796,1.575
672.060,1.555
672.324,1.536
672.588,1.548
672.852,1.565
673.116,1.596
673.380,1.626
673.644,1.608
673.908,1.559
674.172,1.507
674.436,1.499
674.700,1.501
674.963,1.508
675.227,1.510
675.491,1.504
675.754,1.496
676.018,1.490
676.282,1.495
676.545,1.496
676.809,1.491
677.072,1.479
677.336,1.472
677.599,1.475
677.863,1.477
678.126,1.482
678.389,1.493
678.653,1.506
678.916,1.508
679.179,1.496
679.442,1.485
679.706,1.484
679.969,1.485
680.232,1.492
680.495,1.503
680.758,1.509
681.021,1.507
681.284,1.495
681.547,1.486
681.810,1.490
682.073,1.504
682.336,1.518
682.599,1.518
682.862,1.512
683.125,1.510
683.388,1.511
683.651,1.509
683.913,1.501
684.176,1.492
684.439,1.480
684.702,1.469
684.964,1.464
685.227,1.471
685.490,1.488
685.752,1.509
686.015,1.514
686.277,1.507
686.540,1.490
686.802,1.477
687.065,1.472
687.327,1.476
687.590,1.481
687.852,1.480
688.115,1.471
688.377,1.468
688.639,1.471
688.902,1.479
689.164,1.489
689.426,1.499
689.689,1.506
689.951,1.501
690.213,1.496
690.475,1.495
690.737,1.493
691.000,1.484
691.262,1.478
691.524,1.484
691.786,1.503
692.048,1.519
692.310,1.519
692.572,1.503
692.834,1.484
693.096,1.478
693.358,1.486
693.620,1.499
693.882,1.512
694.144,1.514
694.406,1.508
694.668,1.499
694.930,1.490
695.192,1.486
695.453,1.488
695.715,1.491
695.977,1.490
696.239,1.486
696.501,1.489
696.762,1.496
697.024,1.503
697.286,1.496
697.548,1.489
697.809,1.482
698.071,1.479
698.333,1.475
698.594,1.474
698.856,1.482
699.118,1.488
699.379,1.491
699.641,1.497
699.902,1.504
700.164,1.506
700.426,1.498
700.687,1.486
700.949,1.480
701.210,1.479
701.472,1.477
701.733,1.471
701.995,1.468
702.256,1.471
702.518,1.476
702.779,1.481
703.041,1.496
703.302,1.512
703.563,1.511
703.825,1.496
704.086,1.481
704.348,1.478
704.609,1.483
704.871,1.497
705.132,1.507
705.393,1.503
705.655,1.493
705.916,1.489
706.177,1.494
706.439,1.500
706.700,1.500
706.961,1.495
707.223,1.486
707.484,1.467
707.745,1.451
708.007,1.436
708.268,1.425
708.529,1.415
708.790,1.402
709.052,1.394
709.313,1.394
709.574,1.396
709.835,1.396
710.097,1.384
710.358,1.367
710.619,1.351
710.881,1.341
711.142,1.334
711.403,1.330
711.664,1.329
711.926,1.328
712.187,1.334
712.448,1.342
712.709,1.356
712.970,1.366
713.232,1.370
713.493,1.369
713.754,1.366
714.015,1.367
714.277,1.374
714.538,1.384
714.799,1.396
715.060,1.403
715.322,1.403
715.583,1.393
715.844,1.381
716.105,1.369
716.367,1.363
716.628,1.363
716.889,1.363
717.150,1.357
717.411,1.347
717.673,1.348
717.934,1.356
718.195,1.362
718.457,1.356
718.718,1.346
718.979,1.343
719.240,1.349
719.502,1.357
719.763,1.364
720.024,1.366
720.286,1.366
720.547,1.358
720.808,1.353
721.069,1.349
721.331,1.356
721.592,1.370
721.853,1.378
722.115,1.378
722.376,1.374
722.638,1.369
722.899,1.366
723.160,1.359
723.422,1.353
723.683,1.348
723.944,1.351
724.206,1.355
724.467,1.354
724.729,1.351
724.990,1.354
725.252,1.364
725.513,1.361
725.775,1.349
726.036,1.335
726.298,1.333
726.559,1.337
726.821,1.340
727.082,1.340
727.344,1.339
727.605,1.338
727.867,1.336
728.128,1.340
728.390,1.344
728.652,1.354
728.913,1.364
729.175,1.371
729.436,1.371
729.698,1.369
729.960,1.367
730.221,1.362
730.483,1.349
730.745,1.341
731.007,1.340
731.268,1.342
731.530,1.343
731.792,1.344
732.054,1.351
732.315,1.358
732.577,1.362
732.839,1.355
733.101,1.347
733.363,1.343
733.625,1.345
733.887,1.350
734.149,1.349
734.411,1.352
734.673,1.353
734.935,1.353
735.197,1.349
735.459,1.355
735.721,1.361
735.983,1.362
736.245,1.351
736.507,1.348
736.769,1.352
737.031,1.358
737.293,1.352
737.555,1.340
737.818,1.331
738.080,1.325
738.342,1.324
738.604,1.325
738.867,1.328
739.129,1.332
739.391,1.333
739.654,1.334
739.916,1.335
740.178,1.342
740.441,1.348
740.703,1.350
740.966,1.345
741.228,1.338
741.491,1.333
741.753,1.336
742.016,1.340
742.278,1.343
742.541,1.347
742.804,1.354
743.066,1.361
743.329,1.360
743.592,1.351
743.854,1.346
744.117,1.350
744.380,1.355
744.643,1.352
744.905,1.348
745.168,1.348
745.431,1.347
745.694,1.343
745.957,1.336
746.220,1.330
746.483,1.325
746.746,1.321
747.009,1.328
747.272,1.348
