Wavelength (nm),Intensity Source #122,,C:/Users/Brend/Desktop/LED Spectras v2/Spectrometer Data.sp,,,Source #122,
379.792,1.900,,2018-06-14 11:00:06,,Integration Time,134 ms,
380.000,1.900,,Analyze Light,,Number of Scans to Average,25,
380.209,1.902,,,,Smoothing,1,
380.418,1.915
380.627,1.930
380.837,1.946
381.048,1.956
381.259,1.959
381.471,1.960
381.683,1.964
381.896,1.973
382.110,1.978
382.324,1.988
382.538,2.001
382.753,2.014
382.969,2.007
383.185,2.000
383.402,1.995
383.619,2.008
383.837,2.023
384.055,2.047
384.274,2.067
384.493,2.080
384.712,2.082
384.932,2.086
385.153,2.093
385.374,2.104
385.596,2.115
385.818,2.133
386.040,2.146
386.263,2.159
386.487,2.165
386.710,2.167
386.935,2.159
387.159,2.156
387.385,2.152
387.610,2.151
387.836,2.150
388.063,2.158
388.289,2.168
388.517,2.176
388.744,2.175
388.972,2.185
389.201,2.192
389.430,2.204
389.659,2.211
389.889,2.228
390.119,2.246
390.349,2.256
390.580,2.261
390.811,2.262
391.042,2.263
391.274,2.267
391.507,2.271
391.739,2.272
391.972,2.268
392.205,2.275
392.439,2.289
392.673,2.310
392.907,2.327
393.142,2.344
393.377,2.355
393.612,2.365
393.848,2.371
394.084,2.380
394.320,2.385
394.557,2.395
394.794,2.401
395.031,2.410
395.269,2.421
395.507,2.435
395.745,2.443
395.983,2.452
396.222,2.463
396.461,2.484
396.700,2.505
396.940,2.520
397.180,2.529
397.420,2.528
397.660,2.523
397.901,2.519
398.142,2.521
398.383,2.519
398.625,2.513
398.866,2.517
399.108,2.540
399.351,2.578
399.593,2.597
399.836,2.603
400.079,2.591
400.322,2.585
400.566,2.577
400.809,2.577
401.053,2.583
401.298,2.598
401.542,2.614
401.787,2.632
402.031,2.644
402.277,2.654
402.522,2.655
402.767,2.662
403.013,2.664
403.259,2.673
403.505,2.673
403.752,2.677
403.998,2.680
404.245,2.696
404.492,2.712
404.739,2.722
404.986,2.723
405.234,2.730
405.482,2.738
405.730,2.744
405.978,2.751
406.226,2.753
406.475,2.750
406.723,2.751
406.972,2.761
407.221,2.780
407.470,2.791
407.720,2.801
407.969,2.805
408.219,2.817
408.469,2.828
408.719,2.842
408.969,2.852
409.219,2.863
409.470,2.868
409.720,2.876
409.971,2.884
410.222,2.900
410.473,2.903
410.724,2.906
410.976,2.906
411.227,2.919
411.479,2.932
411.731,2.946
411.983,2.950
412.235,2.954
412.487,2.953
412.740,2.961
412.992,2.966
413.245,2.976
413.497,2.976
413.750,2.979
414.003,2.977
414.257,2.978
414.510,2.978
414.763,2.990
415.017,2.997
415.270,3.006
415.524,3.005
415.778,3.008
416.032,3.009
416.286,3.022
416.540,3.032
416.794,3.047
417.049,3.053
417.303,3.061
417.558,3.070
417.812,3.073
418.067,3.072
418.322,3.069
418.577,3.066
418.832,3.059
419.088,3.042
419.343,3.041
419.598,3.037
419.854,3.044
420.109,3.045
420.365,3.062
420.621,3.065
420.876,3.070
421.132,3.060
421.388,3.053
421.645,3.041
421.901,3.043
422.157,3.048
422.413,3.055
422.670,3.055
422.926,3.060
423.183,3.059
423.439,3.071
423.696,3.085
423.953,3.120
424.210,3.147
424.467,3.161
424.724,3.157
424.981,3.148
425.238,3.151
425.495,3.169
425.753,3.191
426.010,3.217
426.267,3.236
426.525,3.265
426.782,3.289
427.040,3.321
427.298,3.356
427.555,3.405
427.813,3.445
428.071,3.488
428.329,3.528
428.587,3.578
428.845,3.627
429.103,3.678
429.361,3.725
429.619,3.782
429.878,3.842
430.136,3.922
430.394,4.001
430.653,4.099
430.911,4.203
431.170,4.316
431.428,4.416
431.687,4.520
431.946,4.627
432.204,4.749
432.463,4.875
432.722,5.008
432.981,5.136
433.240,5.282
433.499,5.439
433.758,5.618
434.017,5.788
434.276,5.965
434.535,6.142
434.794,6.337
435.053,6.539
435.312,6.756
435.572,6.974
435.831,7.212
436.090,7.467
436.350,7.754
436.609,8.045
436.869,8.336
437.128,8.625
437.388,8.926
437.647,9.243
437.907,9.584
438.166,9.929
438.426,10.278
438.686,10.642
438.946,11.035
439.205,11.448
439.465,11.873
439.725,12.321
439.985,12.793
440.245,13.268
440.505,13.757
440.765,14.244
441.025,14.748
441.285,15.267
441.545,15.820
441.805,16.388
442.065,16.979
442.325,17.584
442.585,18.237
442.846,18.914
443.106,19.648
443.366,20.399
443.626,21.177
443.887,21.964
444.147,22.784
444.407,23.632
444.668,24.539
444.928,25.477
445.189,26.480
445.449,27.508
445.710,28.590
445.970,29.709
446.231,30.893
446.491,32.142
446.752,33.441
447.012,34.792
447.273,36.205
447.534,37.677
447.794,39.205
448.055,40.802
448.316,42.488
448.577,44.262
448.837,46.113
449.098,48.038
449.359,50.014
449.620,52.022
449.881,54.065
450.142,56.153
450.403,58.288
450.664,60.490
450.924,62.737
451.185,65.045
451.446,67.360
451.707,69.690
451.969,72.012
452.230,74.328
452.491,76.604
452.752,78.804
453.013,80.908
453.274,82.854
453.535,84.554
453.796,85.937
454.058,87.060
454.319,87.997
454.580,88.825
454.841,89.547
455.103,90.180
455.364,90.704
455.625,91.141
455.887,91.483
456.148,91.754
456.409,91.942
456.671,92.065
456.932,92.123
457.194,92.117
457.455,92.051
457.716,91.928
457.978,91.758
458.239,91.531
458.501,91.247
458.763,90.888
459.024,90.461
459.286,89.949
459.547,89.348
459.809,88.642
460.071,87.807
460.332,86.833
460.594,85.668
460.856,84.278
461.117,82.645
461.379,80.835
461.641,78.928
461.903,76.976
462.164,75.007
462.426,73.036
462.688,71.088
462.950,69.160
463.212,67.264
463.474,65.415
463.736,63.634
463.998,61.945
464.260,60.340
464.522,58.816
464.784,57.354
465.046,55.972
465.308,54.674
465.570,53.465
465.832,52.321
466.094,51.240
466.356,50.203
466.618,49.213
466.880,48.271
467.142,47.372
467.405,46.535
467.667,45.741
467.929,45.010
468.191,44.312
468.454,43.638
468.716,42.957
468.978,42.258
469.241,41.553
469.503,40.853
469.765,40.184
470.028,39.523
470.290,38.879
470.552,38.233
470.815,37.587
471.077,36.936
471.340,36.280
471.602,35.628
471.865,34.945
472.128,34.252
472.390,33.557
472.653,32.861
472.915,32.161
473.178,31.448
473.441,30.743
473.703,30.018
473.966,29.284
474.229,28.538
474.492,27.807
474.755,27.064
475.017,26.340
475.280,25.615
475.543,24.923
475.806,24.218
476.069,23.513
476.332,22.815
476.595,22.144
476.858,21.500
477.121,20.865
477.384,20.241
477.647,19.646
477.910,19.066
478.173,18.512
478.436,17.968
478.699,17.459
478.962,16.965
479.226,16.496
479.489,16.028
479.752,15.576
480.015,15.128
480.279,14.703
480.542,14.283
480.805,13.887
481.069,13.510
481.332,13.172
481.595,12.855
481.859,12.563
482.122,12.269
482.386,11.975
482.649,11.676
482.913,11.393
483.177,11.104
483.440,10.828
483.704,10.563
483.967,10.340
484.231,10.124
484.495,9.919
484.759,9.705
485.022,9.490
485.286,9.268
485.550,9.055
485.814,8.834
486.078,8.625
486.342,8.415
486.606,8.237
486.869,8.058
487.133,7.886
487.397,7.703
487.662,7.529
487.926,7.347
488.190,7.173
488.454,6.989
488.718,6.820
488.982,6.644
489.246,6.483
489.511,6.307
489.775,6.135
490.039,5.958
490.304,5.791
490.568,5.626
490.832,5.474
491.097,5.330
491.361,5.200
491.626,5.063
491.890,4.934
492.155,4.801
492.419,4.677
492.684,4.542
492.949,4.414
493.213,4.285
493.478,4.172
493.743,4.054
494.008,3.936
494.272,3.816
494.537,3.720
494.802,3.634
495.067,3.559
495.332,3.485
495.597,3.415
495.862,3.335
496.127,3.259
496.392,3.177
496.657,3.096
496.922,3.015
497.187,2.950
497.452,2.899
497.718,2.865
497.983,2.820
498.248,2.771
498.513,2.710
498.779,2.670
499.044,2.634
499.310,2.595
499.575,2.542
499.841,2.502
500.106,2.470
500.372,2.435
500.637,2.397
500.903,2.371
501.168,2.350
501.434,2.324
501.700,2.284
501.966,2.252
502.231,2.221
502.497,2.197
502.763,2.165
503.029,2.137
503.295,2.111
503.561,2.092
503.827,2.076
504.093,2.062
504.359,2.046
504.625,2.030
504.891,2.009
505.157,1.994
505.423,1.972
505.690,1.947
505.956,1.920
506.222,1.904
506.489,1.909
506.755,1.917
507.021,1.919
507.288,1.914
507.554,1.899
507.821,1.886
508.087,1.871
508.354,1.867
508.621,1.859
508.887,1.843
509.154,1.823
509.421,1.806
509.687,1.791
509.954,1.775
510.221,1.761
510.488,1.759
510.755,1.761
511.022,1.766
511.289,1.757
511.556,1.742
511.823,1.727
512.090,1.724
512.357,1.719
512.624,1.713
512.891,1.699
513.159,1.686
513.426,1.671
513.693,1.662
513.960,1.662
514.228,1.667
514.495,1.671
514.763,1.669
515.030,1.661
515.298,1.649
515.565,1.642
515.833,1.639
516.100,1.636
516.368,1.635
516.636,1.629
516.904,1.628
517.171,1.621
517.439,1.618
517.707,1.612
517.975,1.613
518.243,1.613
518.511,1.611
518.779,1.599
519.047,1.592
519.315,1.585
519.583,1.575
519.851,1.554
520.119,1.540
520.387,1.540
520.656,1.549
520.924,1.558
521.192,1.565
521.461,1.566
521.729,1.570
521.997,1.572
522.266,1.575
522.534,1.569
522.803,1.565
523.071,1.557
523.340,1.546
523.609,1.533
523.877,1.520
524.146,1.518
524.415,1.523
524.684,1.529
524.952,1.525
525.221,1.522
525.490,1.529
525.759,1.542
526.028,1.542
526.297,1.525
526.566,1.509
526.835,1.502
527.104,1.505
527.373,1.509
527.642,1.504
527.912,1.493
528.181,1.481
528.450,1.478
528.719,1.486
528.989,1.504
529.258,1.521
529.528,1.527
529.797,1.520
530.067,1.515
530.336,1.509
530.606,1.502
530.875,1.489
531.145,1.486
531.414,1.493
531.684,1.503
531.954,1.501
532.224,1.488
532.493,1.468
532.763,1.455
533.033,1.454
533.303,1.463
533.573,1.472
533.843,1.467
534.113,1.460
534.383,1.451
534.653,1.453
534.923,1.457
535.193,1.468
535.463,1.484
535.733,1.497
536.004,1.505
536.274,1.502
536.544,1.490
536.814,1.476
537.085,1.467
537.355,1.473
537.626,1.488
537.896,1.496
538.166,1.495
538.437,1.488
538.707,1.481
538.978,1.478
539.249,1.484
539.519,1.492
539.790,1.487
540.061,1.483
540.331,1.492
540.602,1.508
540.873,1.516
541.144,1.512
541.414,1.505
541.685,1.500
541.956,1.497
542.227,1.494
542.498,1.485
542.769,1.479
543.040,1.485
543.311,1.502
543.582,1.517
543.853,1.523
544.124,1.525
544.396,1.528
544.667,1.530
544.938,1.522
545.209,1.497
545.480,1.478
545.752,1.468
546.023,1.476
546.294,1.475
546.566,1.468
546.837,1.456
547.109,1.450
547.380,1.445
547.652,1.443
547.923,1.444
548.195,1.453
548.466,1.467
548.738,1.480
549.009,1.481
549.281,1.475
549.553,1.464
549.824,1.451
550.096,1.440
550.368,1.435
550.640,1.438
550.911,1.444
551.183,1.456
551.455,1.470
551.727,1.481
551.999,1.473
552.271,1.456
552.543,1.444
552.815,1.445
553.087,1.455
553.359,1.462
553.631,1.465
553.903,1.461
554.175,1.463
554.447,1.470
554.719,1.476
554.991,1.476
555.263,1.472
555.535,1.463
555.808,1.454
556.080,1.442
556.352,1.436
556.624,1.433
556.897,1.429
557.169,1.428
557.441,1.425
557.714,1.422
557.986,1.421
558.258,1.419
558.531,1.427
558.803,1.435
559.076,1.442
559.348,1.437
559.621,1.432
559.893,1.432
560.166,1.435
560.438,1.435
560.711,1.430
560.983,1.427
561.256,1.430
561.528,1.435
561.801,1.439
562.074,1.443
562.346,1.447
562.619,1.452
562.892,1.451
563.164,1.445
563.437,1.441
563.710,1.440
563.983,1.435
564.255,1.426
564.528,1.428
564.801,1.440
565.074,1.451
565.346,1.446
565.619,1.439
565.892,1.438
566.165,1.437
566.438,1.429
566.711,1.420
566.984,1.417
567.257,1.419
567.529,1.425
567.802,1.438
568.075,1.451
568.348,1.451
568.621,1.442
568.894,1.430
569.167,1.426
569.440,1.424
569.713,1.416
569.986,1.410
570.259,1.404
570.532,1.409
570.805,1.415
571.078,1.420
571.351,1.425
571.625,1.428
571.898,1.427
572.171,1.419
572.444,1.410
572.717,1.413
572.990,1.422
573.263,1.425
573.536,1.419
573.809,1.410
574.083,1.407
574.356,1.410
574.629,1.423
574.902,1.431
575.175,1.433
575.448,1.424
575.721,1.417
575.995,1.411
576.268,1.408
576.541,1.412
576.814,1.416
577.087,1.421
577.361,1.421
577.634,1.421
577.907,1.413
578.180,1.400
578.453,1.390
578.727,1.391
579.000,1.396
579.273,1.405
579.546,1.420
579.820,1.435
580.093,1.439
580.366,1.430
580.639,1.417
580.913,1.410
581.186,1.408
581.459,1.409
581.732,1.404
582.005,1.402
582.279,1.397
582.552,1.398
582.825,1.401
583.098,1.409
583.372,1.415
583.645,1.419
583.918,1.420
584.191,1.420
584.464,1.418
584.738,1.419
585.011,1.419
585.284,1.418
585.557,1.411
585.831,1.411
586.104,1.420
586.377,1.439
586.650,1.450
586.923,1.450
587.196,1.441
587.470,1.431
587.743,1.423
588.016,1.418
588.289,1.422
588.562,1.431
588.835,1.433
589.109,1.428
589.382,1.415
589.655,1.407
589.928,1.400
590.201,1.398
590.474,1.407
590.747,1.420
591.020,1.434
591.293,1.437
591.567,1.435
591.840,1.424
592.113,1.411
592.386,1.396
592.659,1.386
592.932,1.384
593.205,1.390
593.478,1.396
593.751,1.400
594.024,1.406
594.297,1.405
594.570,1.402
594.843,1.402
595.116,1.410
595.389,1.414
595.662,1.409
595.934,1.408
596.207,1.412
596.480,1.421
596.753,1.425
597.026,1.421
597.299,1.417
597.572,1.415
597.844,1.412
598.117,1.404
598.390,1.401
598.663,1.401
598.936,1.407
599.208,1.409
599.481,1.412
599.754,1.409
600.026,1.396
600.299,1.383
600.572,1.377
600.844,1.379
601.117,1.379
601.390,1.379
601.662,1.382
601.935,1.385
602.207,1.386
602.480,1.389
602.752,1.390
603.025,1.386
603.297,1.385
603.570,1.394
603.842,1.410
604.115,1.421
604.387,1.429
604.660,1.425
604.932,1.421
605.204,1.418
605.477,1.424
605.749,1.432
606.021,1.441
606.294,1.442
606.566,1.433
606.838,1.425
607.110,1.426
607.383,1.437
607.655,1.445
607.927,1.453
608.199,1.460
608.471,1.460
608.743,1.450
609.015,1.440
609.287,1.435
609.559,1.438
609.831,1.442
610.103,1.443
610.375,1.438
610.647,1.426
610.919,1.414
611.191,1.413
611.463,1.417
611.735,1.421
612.007,1.413
612.278,1.404
612.550,1.396
612.822,1.404
613.094,1.412
613.365,1.417
613.637,1.420
613.909,1.420
614.180,1.420
614.452,1.413
614.723,1.407
614.995,1.399
615.266,1.398
615.538,1.407
615.809,1.418
616.081,1.419
616.352,1.410
616.623,1.404
616.895,1.405
617.166,1.403
617.437,1.397
617.709,1.396
617.980,1.402
618.251,1.411
618.522,1.418
618.793,1.429
619.065,1.442
619.336,1.440
619.607,1.426
619.878,1.418
620.149,1.425
620.420,1.431
620.691,1.427
620.962,1.426
621.232,1.429
621.503,1.426
621.774,1.419
622.045,1.411
622.316,1.416
622.586,1.426
622.857,1.437
623.128,1.440
623.398,1.438
623.669,1.429
623.940,1.415
624.210,1.402
624.481,1.403
624.751,1.410
625.021,1.413
625.292,1.409
625.562,1.404
625.833,1.400
626.103,1.394
626.373,1.386
626.643,1.384
626.914,1.385
627.184,1.393
627.454,1.400
627.724,1.407
627.994,1.410
628.264,1.409
628.534,1.401
628.804,1.396
629.074,1.397
629.344,1.404
629.614,1.406
629.884,1.399
630.154,1.389
630.424,1.379
630.693,1.373
630.963,1.365
631.233,1.356
631.502,1.356
631.772,1.370
632.041,1.387
632.311,1.396
632.581,1.397
632.850,1.387
633.119,1.374
633.389,1.358
633.658,1.353
633.928,1.359
634.197,1.371
634.466,1.389
634.735,1.402
635.004,1.404
635.274,1.398
635.543,1.390
635.812,1.389
636.081,1.387
636.350,1.383
636.619,1.382
636.888,1.388
637.157,1.396
637.426,1.404
637.694,1.405
637.963,1.399
638.232,1.389
638.501,1.379
638.769,1.381
639.038,1.387
639.307,1.400
639.575,1.407
639.844,1.404
640.112,1.393
640.381,1.380
640.649,1.378
640.917,1.383
641.186,1.384
641.454,1.385
641.722,1.382
641.991,1.382
642.259,1.375
642.527,1.372
642.795,1.370
643.063,1.366
643.331,1.362
643.599,1.362
643.867,1.372
644.135,1.381
644.403,1.391
644.671,1.394
644.939,1.398
645.206,1.401
645.474,1.404
645.742,1.398
646.009,1.386
646.277,1.380
646.545,1.382
646.812,1.395
647.080,1.405
647.347,1.411
647.615,1.408
647.882,1.395
648.149,1.381
648.417,1.372
648.684,1.375
648.951,1.385
649.219,1.394
649.486,1.394
649.753,1.387
650.020,1.380
650.287,1.375
650.554,1.375
650.821,1.376
651.088,1.377
651.355,1.382
651.622,1.384
651.889,1.384
652.155,1.377
652.422,1.377
652.689,1.382
652.956,1.388
653.222,1.396
653.489,1.413
653.755,1.424
654.022,1.421
654.288,1.404
654.555,1.392
654.821,1.390
655.088,1.397
655.354,1.406
655.620,1.415
655.887,1.418
656.153,1.419
656.419,1.416
656.685,1.415
656.951,1.412
657.217,1.408
657.483,1.400
657.749,1.395
658.015,1.394
658.281,1.394
658.547,1.388
658.813,1.380
659.079,1.374
659.345,1.367
659.610,1.362
659.876,1.359
660.142,1.362
660.407,1.366
660.673,1.372
660.939,1.379
661.204,1.380
661.470,1.374
661.735,1.369
662.000,1.372
662.266,1.375
662.531,1.376
662.796,1.376
663.062,1.374
663.327,1.371
663.592,1.370
663.857,1.371
664.122,1.371
664.388,1.370
664.653,1.374
664.918,1.382
665.183,1.386
665.448,1.389
665.712,1.392
665.977,1.399
666.242,1.397
666.507,1.380
666.772,1.361
667.037,1.350
667.301,1.356
667.566,1.365
667.831,1.372
668.095,1.376
668.360,1.379
668.624,1.377
668.889,1.380
669.153,1.380
669.418,1.382
669.682,1.380
669.946,1.381
670.211,1.385
670.475,1.390
670.739,1.397
671.004,1.409
671.268,1.434
671.532,1.460
671.796,1.452
672.060,1.430
672.324,1.408
672.588,1.413
672.852,1.424
673.116,1.459
673.380,1.490
673.644,1.474
673.908,1.431
674.172,1.392
674.436,1.393
674.700,1.396
674.963,1.400
675.227,1.402
675.491,1.398
675.754,1.391
676.018,1.383
676.282,1.384
676.545,1.383
676.809,1.378
677.072,1.370
677.336,1.366
677.599,1.369
677.863,1.372
678.126,1.377
678.389,1.388
678.653,1.398
678.916,1.400
679.179,1.387
679.442,1.375
679.706,1.375
679.969,1.382
680.232,1.394
680.495,1.405
680.758,1.410
681.021,1.406
681.284,1.393
681.547,1.383
681.810,1.384
682.073,1.396
682.336,1.405
682.599,1.402
682.862,1.392
683.125,1.387
683.388,1.391
683.651,1.396
683.913,1.395
684.176,1.384
684.439,1.371
684.702,1.359
684.964,1.354
685.227,1.354
685.490,1.366
685.752,1.382
686.015,1.391
686.277,1.390
686.540,1.382
686.802,1.372
687.065,1.370
687.327,1.372
687.590,1.376
687.852,1.370
688.115,1.357
688.377,1.351
688.639,1.350
688.902,1.354
689.164,1.360
689.426,1.370
689.689,1.378
689.951,1.378
690.213,1.379
690.475,1.382
690.737,1.383
691.000,1.380
691.262,1.375
691.524,1.377
691.786,1.384
692.048,1.395
692.310,1.394
692.572,1.380
692.834,1.363
693.096,1.360
693.358,1.369
693.620,1.381
693.882,1.391
694.144,1.393
694.406,1.389
694.668,1.384
694.930,1.378
695.192,1.373
695.453,1.372
695.715,1.375
695.977,1.375
696.239,1.371
696.501,1.370
696.762,1.373
697.024,1.374
697.286,1.370
697.548,1.364
697.809,1.360
698.071,1.357
698.333,1.357
698.594,1.361
698.856,1.370
699.118,1.380
699.379,1.388
699.641,1.395
699.902,1.401
700.164,1.401
700.426,1.392
700.687,1.381
700.949,1.378
701.210,1.377
701.472,1.374
701.733,1.368
701.995,1.365
702.256,1.366
702.518,1.367
702.779,1.370
703.041,1.384
703.302,1.401
703.563,1.403
703.825,1.395
704.086,1.383
704.348,1.378
704.609,1.378
704.871,1.383
705.132,1.389
705.393,1.383
705.655,1.375
705.916,1.370
706.177,1.370
706.439,1.370
706.700,1.368
706.961,1.370
707.223,1.372
707.484,1.361
707.745,1.348
708.007,1.330
708.268,1.321
708.529,1.310
708.790,1.297
709.052,1.288
709.313,1.288
709.574,1.293
709.835,1.300
710.097,1.298
710.358,1.287
710.619,1.275
710.881,1.264
711.142,1.258
711.403,1.254
711.664,1.252
711.926,1.249
712.187,1.252
712.448,1.257
712.709,1.267
712.970,1.277
713.232,1.284
713.493,1.285
713.754,1.284
714.015,1.287
714.277,1.295
714.538,1.302
714.799,1.309
715.060,1.312
715.322,1.312
715.583,1.304
715.844,1.293
716.105,1.280
716.367,1.274
716.628,1.275
716.889,1.277
717.150,1.272
717.411,1.264
717.673,1.265
717.934,1.271
718.195,1.274
718.457,1.266
718.718,1.255
718.979,1.254
719.240,1.259
719.502,1.270
719.763,1.277
720.024,1.283
720.286,1.285
720.547,1.279
720.808,1.272
721.069,1.266
721.331,1.270
721.592,1.278
721.853,1.283
722.115,1.283
722.376,1.281
722.638,1.281
722.899,1.281
723.160,1.276
723.422,1.269
723.683,1.265
723.944,1.270
724.206,1.273
724.467,1.273
724.729,1.270
724.990,1.274
725.252,1.280
725.513,1.275
725.775,1.264
726.036,1.256
726.298,1.258
726.559,1.265
726.821,1.268
727.082,1.269
727.344,1.267
727.605,1.266
727.867,1.264
728.128,1.268
728.390,1.270
728.652,1.279
728.913,1.288
729.175,1.294
729.436,1.294
729.698,1.291
729.960,1.285
730.221,1.278
730.483,1.264
730.745,1.259
731.007,1.259
731.268,1.264
731.530,1.268
731.792,1.270
732.054,1.271
732.315,1.276
732.577,1.279
732.839,1.276
733.101,1.270
733.363,1.267
733.625,1.269
733.887,1.270
734.149,1.267
734.411,1.268
734.673,1.272
734.935,1.277
735.197,1.276
735.459,1.277
735.721,1.278
735.983,1.276
736.245,1.263
736.507,1.257
736.769,1.258
737.031,1.268
737.293,1.269
737.555,1.264
737.818,1.256
738.080,1.249
738.342,1.250
738.604,1.252
738.867,1.254
739.129,1.252
739.391,1.250
739.654,1.250
739.916,1.254
740.178,1.259
740.441,1.264
740.703,1.266
740.966,1.264
741.228,1.262
741.491,1.261
741.753,1.262
742.016,1.261
742.278,1.260
742.541,1.259
742.804,1.259
743.066,1.264
743.329,1.269
743.592,1.272
743.854,1.278
744.117,1.286
744.380,1.290
744.643,1.284
744.905,1.274
745.168,1.268
745.431,1.264
745.694,1.261
745.957,1.257
746.220,1.252
746.483,1.248
746.746,1.247
747.009,1.258
747.272,1.276
