Wavelength (nm),Intensity Source #77,,C:/Users/Brend/Desktop/LED Spectras v2/Spectrometer Data.sp,,,Source #77,
379.792,1.870,,2018-06-14 09:27:35,,Integration Time,190 ms,
380.000,1.870,,Analyze Light,,Number of Scans to Average,25,
380.209,1.872,,,,Smoothing,1,
380.418,1.888
380.627,1.909
380.837,1.927
381.048,1.932
381.259,1.930
381.471,1.930
381.683,1.937
381.896,1.948
382.110,1.954
382.324,1.963
382.538,1.976
382.753,1.993
382.969,1.991
383.185,1.984
383.402,1.974
383.619,1.983
383.837,1.995
384.055,2.021
384.274,2.043
384.493,2.058
384.712,2.063
384.932,2.067
385.153,2.075
385.374,2.084
385.596,2.096
385.818,2.119
386.040,2.142
386.263,2.162
386.487,2.171
386.710,2.176
386.935,2.170
387.159,2.166
387.385,2.160
387.610,2.165
387.836,2.172
388.063,2.186
388.289,2.201
388.517,2.213
388.744,2.217
388.972,2.231
389.201,2.239
389.430,2.251
389.659,2.259
389.889,2.274
390.119,2.287
390.349,2.299
390.580,2.313
390.811,2.323
391.042,2.326
391.274,2.328
391.507,2.336
391.739,2.338
391.972,2.336
392.205,2.340
392.439,2.353
392.673,2.373
392.907,2.388
393.142,2.406
393.377,2.419
393.612,2.438
393.848,2.447
394.084,2.459
394.320,2.466
394.557,2.479
394.794,2.484
395.031,2.495
395.269,2.506
395.507,2.525
395.745,2.534
395.983,2.541
396.222,2.548
396.461,2.568
396.700,2.598
396.940,2.622
397.180,2.634
397.420,2.633
397.660,2.631
397.901,2.633
398.142,2.640
398.383,2.646
398.625,2.645
398.866,2.654
399.108,2.676
399.351,2.720
399.593,2.741
399.836,2.748
400.079,2.736
400.322,2.734
400.566,2.730
400.809,2.732
401.053,2.738
401.298,2.751
401.542,2.766
401.787,2.787
402.031,2.808
402.277,2.828
402.522,2.836
402.767,2.844
403.013,2.843
403.259,2.851
403.505,2.858
403.752,2.870
403.998,2.875
404.245,2.896
404.492,2.922
404.739,2.949
404.986,2.959
405.234,2.964
405.482,2.962
405.730,2.959
405.978,2.958
406.226,2.958
406.475,2.955
406.723,2.958
406.972,2.973
407.221,3.000
407.470,3.019
407.720,3.032
407.969,3.031
408.219,3.045
408.469,3.057
408.719,3.077
408.969,3.090
409.219,3.110
409.470,3.123
409.720,3.137
409.971,3.147
410.222,3.173
410.473,3.190
410.724,3.202
410.976,3.207
411.227,3.226
411.479,3.235
411.731,3.246
411.983,3.246
412.235,3.254
412.487,3.253
412.740,3.258
412.992,3.259
413.245,3.270
413.497,3.274
413.750,3.283
414.003,3.281
414.257,3.287
414.510,3.289
414.763,3.303
415.017,3.315
415.270,3.330
415.524,3.336
415.778,3.339
416.032,3.339
416.286,3.353
416.540,3.366
416.794,3.385
417.049,3.391
417.303,3.403
417.558,3.410
417.812,3.417
418.067,3.415
418.322,3.416
418.577,3.417
418.832,3.417
419.088,3.407
419.343,3.409
419.598,3.403
419.854,3.408
420.109,3.408
420.365,3.428
420.621,3.437
420.876,3.444
421.132,3.436
421.388,3.432
421.645,3.427
421.901,3.433
422.157,3.439
422.413,3.448
422.670,3.449
422.926,3.454
423.183,3.447
423.439,3.456
423.696,3.465
423.953,3.503
424.210,3.531
424.467,3.545
424.724,3.538
424.981,3.527
425.238,3.524
425.495,3.543
425.753,3.566
426.010,3.593
426.267,3.608
426.525,3.636
426.782,3.664
427.040,3.702
427.298,3.737
427.555,3.786
427.813,3.823
428.071,3.863
428.329,3.898
428.587,3.945
428.845,3.993
429.103,4.045
429.361,4.094
429.619,4.153
429.878,4.212
430.136,4.288
430.394,4.361
430.653,4.459
430.911,4.567
431.170,4.687
431.428,4.785
431.687,4.883
431.946,4.975
432.204,5.086
432.463,5.205
432.722,5.333
432.981,5.461
433.240,5.600
433.499,5.749
433.758,5.919
434.017,6.077
434.276,6.249
434.535,6.417
434.794,6.603
435.053,6.789
435.312,6.994
435.572,7.200
435.831,7.423
436.090,7.667
436.350,7.934
436.609,8.203
436.869,8.465
437.128,8.727
437.388,9.003
437.647,9.298
437.907,9.626
438.166,9.961
438.426,10.307
438.686,10.656
438.946,11.032
439.205,11.423
439.465,11.836
439.725,12.272
439.985,12.730
440.245,13.188
440.505,13.667
440.765,14.160
441.025,14.662
441.285,15.170
441.545,15.697
441.805,16.249
442.065,16.821
442.325,17.408
442.585,18.039
442.846,18.696
443.106,19.401
443.366,20.124
443.626,20.866
443.887,21.634
444.147,22.437
444.407,23.282
444.668,24.160
444.928,25.064
445.189,26.032
445.449,27.040
445.710,28.091
445.970,29.167
446.231,30.291
446.491,31.469
446.752,32.693
447.012,33.967
447.273,35.310
447.534,36.685
447.794,38.088
448.055,39.518
448.316,41.036
448.577,42.639
448.837,44.320
449.098,46.047
449.359,47.812
449.620,49.600
449.881,51.415
450.142,53.262
450.403,55.175
450.664,57.156
450.924,59.202
451.185,61.279
451.446,63.390
451.707,65.514
451.969,67.656
452.230,69.785
452.491,71.913
452.752,73.998
453.013,76.054
453.274,78.072
453.535,80.042
453.796,81.892
454.058,83.556
454.319,84.991
454.580,86.188
454.841,87.196
455.103,88.045
455.364,88.793
455.625,89.453
455.887,90.050
456.148,90.575
456.409,91.019
456.671,91.386
456.932,91.678
457.194,91.909
457.455,92.091
457.716,92.228
457.978,92.316
458.239,92.349
458.501,92.339
458.763,92.286
459.024,92.189
459.286,92.048
459.547,91.859
459.809,91.621
460.071,91.328
460.332,90.973
460.594,90.559
460.856,90.090
461.117,89.553
461.379,88.963
461.641,88.314
461.903,87.589
462.164,86.744
462.426,85.752
462.688,84.583
462.950,83.215
463.212,81.662
463.474,80.000
463.736,78.284
463.998,76.584
464.260,74.924
464.522,73.331
464.784,71.761
465.046,70.219
465.308,68.716
465.570,67.274
465.832,65.884
466.094,64.534
466.356,63.223
466.618,61.939
466.880,60.689
467.142,59.483
467.405,58.326
467.667,57.232
467.929,56.182
468.191,55.182
468.454,54.219
468.716,53.283
468.978,52.360
469.241,51.437
469.503,50.546
469.765,49.718
470.028,48.937
470.290,48.188
470.552,47.435
470.815,46.697
471.077,45.955
471.340,45.227
471.602,44.507
471.865,43.800
472.128,43.094
472.390,42.382
472.653,41.670
472.915,40.938
473.178,40.196
473.441,39.432
473.703,38.666
473.966,37.881
474.229,37.095
474.492,36.298
474.755,35.503
475.017,34.726
475.280,33.975
475.543,33.237
475.806,32.483
476.069,31.699
476.332,30.918
476.595,30.146
476.858,29.389
477.121,28.631
477.384,27.890
477.647,27.177
477.910,26.483
478.173,25.804
478.436,25.123
478.699,24.478
478.962,23.840
479.226,23.234
479.489,22.626
479.752,22.033
480.015,21.443
480.279,20.862
480.542,20.292
480.805,19.741
481.069,19.206
481.332,18.698
481.595,18.211
481.859,17.773
482.122,17.331
482.386,16.895
482.649,16.456
482.913,16.048
483.177,15.639
483.440,15.235
483.704,14.851
483.967,14.517
484.231,14.189
484.495,13.870
484.759,13.544
485.022,13.242
485.286,12.944
485.550,12.648
485.814,12.337
486.078,12.038
486.342,11.755
486.606,11.504
486.869,11.258
487.133,11.019
487.397,10.781
487.662,10.550
487.926,10.314
488.190,10.084
488.454,9.843
488.718,9.614
488.982,9.368
489.246,9.144
489.511,8.917
489.775,8.711
490.039,8.498
490.304,8.290
490.568,8.068
490.832,7.853
491.097,7.650
491.361,7.474
491.626,7.287
491.890,7.101
492.155,6.913
492.419,6.748
492.684,6.566
492.949,6.376
493.213,6.188
493.478,6.030
493.743,5.873
494.008,5.704
494.272,5.533
494.537,5.392
494.802,5.261
495.067,5.141
495.332,5.013
495.597,4.894
495.862,4.756
496.127,4.628
496.392,4.492
496.657,4.371
496.922,4.243
497.187,4.132
497.452,4.026
497.718,3.948
497.983,3.869
498.248,3.793
498.513,3.697
498.779,3.622
499.044,3.551
499.310,3.475
499.575,3.378
499.841,3.293
500.106,3.223
500.372,3.149
500.637,3.077
500.903,3.021
501.168,2.972
501.434,2.915
501.700,2.840
501.966,2.778
502.231,2.720
502.497,2.671
502.763,2.616
503.029,2.567
503.295,2.521
503.561,2.484
503.827,2.451
504.093,2.421
504.359,2.390
504.625,2.366
504.891,2.337
505.157,2.311
505.423,2.266
505.690,2.220
505.956,2.174
506.222,2.150
506.489,2.142
506.755,2.140
507.021,2.130
507.288,2.112
507.554,2.084
507.821,2.053
508.087,2.024
508.354,2.012
508.621,1.997
508.887,1.976
509.154,1.950
509.421,1.929
509.687,1.902
509.954,1.874
510.221,1.850
510.488,1.846
510.755,1.847
511.022,1.850
511.289,1.832
511.556,1.809
511.823,1.785
512.090,1.785
512.357,1.779
512.624,1.771
512.891,1.750
513.159,1.729
513.426,1.707
513.693,1.693
513.960,1.685
514.228,1.682
514.495,1.679
514.763,1.674
515.030,1.659
515.298,1.638
515.565,1.627
515.833,1.621
516.100,1.618
516.368,1.610
516.636,1.603
516.904,1.602
517.171,1.595
517.439,1.590
517.707,1.577
517.975,1.569
518.243,1.565
518.511,1.557
518.779,1.536
519.047,1.526
519.315,1.521
519.583,1.518
519.851,1.498
520.119,1.486
520.387,1.484
520.656,1.489
520.924,1.490
521.192,1.491
521.461,1.490
521.729,1.493
521.997,1.496
522.266,1.494
522.534,1.485
522.803,1.477
523.071,1.469
523.340,1.458
523.609,1.441
523.877,1.432
524.146,1.429
524.415,1.432
524.684,1.435
524.952,1.429
525.221,1.424
525.490,1.427
525.759,1.438
526.028,1.439
526.297,1.424
526.566,1.409
526.835,1.401
527.104,1.407
527.373,1.417
527.642,1.423
527.912,1.415
528.181,1.401
528.450,1.395
528.719,1.399
528.989,1.415
529.258,1.429
529.528,1.431
529.797,1.424
530.067,1.417
530.336,1.409
530.606,1.401
530.875,1.393
531.145,1.390
531.414,1.392
531.684,1.398
531.954,1.397
532.224,1.391
532.493,1.371
532.763,1.358
533.033,1.354
533.303,1.363
533.573,1.372
533.843,1.368
534.113,1.360
534.383,1.350
534.653,1.352
534.923,1.360
535.193,1.372
535.463,1.383
535.733,1.391
536.004,1.396
536.274,1.398
536.544,1.391
536.814,1.374
537.085,1.359
537.355,1.361
537.626,1.377
537.896,1.389
538.166,1.391
538.437,1.387
538.707,1.383
538.978,1.383
539.249,1.392
539.519,1.397
539.790,1.391
540.061,1.383
540.331,1.388
540.602,1.405
540.873,1.417
541.144,1.418
541.414,1.412
541.685,1.407
541.956,1.401
542.227,1.398
542.498,1.392
542.769,1.389
543.040,1.393
543.311,1.406
543.582,1.419
543.853,1.423
544.124,1.425
544.396,1.428
544.667,1.429
544.938,1.421
545.209,1.398
545.480,1.381
545.752,1.377
546.023,1.390
546.294,1.389
546.566,1.379
546.837,1.363
547.109,1.355
547.380,1.348
547.652,1.344
547.923,1.345
548.195,1.355
548.466,1.371
548.738,1.386
549.009,1.384
549.281,1.374
549.553,1.352
549.824,1.329
550.096,1.312
550.368,1.311
550.640,1.317
550.911,1.324
551.183,1.339
551.455,1.361
551.727,1.378
551.999,1.374
552.271,1.359
552.543,1.343
552.815,1.337
553.087,1.346
553.359,1.357
553.631,1.360
553.903,1.352
554.175,1.352
554.447,1.363
554.719,1.373
554.991,1.376
555.263,1.370
555.535,1.359
555.808,1.346
556.080,1.333
556.352,1.326
556.624,1.323
556.897,1.319
557.169,1.318
557.441,1.313
557.714,1.307
557.986,1.301
558.258,1.298
558.531,1.306
558.803,1.314
559.076,1.322
559.348,1.318
559.621,1.311
559.893,1.313
560.166,1.319
560.438,1.322
560.711,1.316
560.983,1.311
561.256,1.310
561.528,1.316
561.801,1.325
562.074,1.336
562.346,1.348
562.619,1.355
562.892,1.350
563.164,1.337
563.437,1.330
563.710,1.328
563.983,1.321
564.255,1.312
564.528,1.316
564.801,1.332
565.074,1.343
565.346,1.337
565.619,1.328
565.892,1.329
566.165,1.327
566.438,1.313
566.711,1.298
566.984,1.295
567.257,1.300
567.529,1.310
567.802,1.328
568.075,1.342
568.348,1.342
568.621,1.336
568.894,1.329
569.167,1.326
569.440,1.316
569.713,1.301
569.986,1.293
570.259,1.293
570.532,1.302
570.805,1.309
571.078,1.312
571.351,1.314
571.625,1.318
571.898,1.315
572.171,1.305
572.444,1.295
572.717,1.299
572.990,1.312
573.263,1.316
573.536,1.305
573.809,1.290
574.083,1.284
574.356,1.291
574.629,1.306
574.902,1.314
575.175,1.312
575.448,1.297
575.721,1.287
575.995,1.284
576.268,1.287
576.541,1.296
576.814,1.303
577.087,1.309
577.361,1.309
577.634,1.307
577.907,1.295
578.180,1.281
578.453,1.275
578.727,1.278
579.000,1.286
579.273,1.297
579.546,1.314
579.820,1.329
580.093,1.331
580.366,1.321
580.639,1.305
580.913,1.294
581.186,1.289
581.459,1.288
581.732,1.282
582.005,1.278
582.279,1.277
582.552,1.283
582.825,1.289
583.098,1.294
583.372,1.298
583.645,1.303
583.918,1.308
584.191,1.310
584.464,1.306
584.738,1.302
585.011,1.302
585.284,1.299
585.557,1.298
585.831,1.301
586.104,1.313
586.377,1.329
586.650,1.337
586.923,1.337
587.196,1.330
587.470,1.320
587.743,1.310
588.016,1.302
588.289,1.304
588.562,1.312
588.835,1.313
589.109,1.304
589.382,1.292
589.655,1.282
589.928,1.276
590.201,1.275
590.474,1.284
590.747,1.300
591.020,1.313
591.293,1.318
591.567,1.316
591.840,1.308
592.113,1.297
592.386,1.286
592.659,1.279
592.932,1.281
593.205,1.286
593.478,1.287
593.751,1.283
594.024,1.275
594.297,1.267
594.570,1.264
594.843,1.271
595.116,1.286
595.389,1.296
595.662,1.294
595.934,1.293
596.207,1.295
596.480,1.306
596.753,1.314
597.026,1.317
597.299,1.316
597.572,1.312
597.844,1.304
598.117,1.290
598.390,1.278
598.663,1.271
598.936,1.276
599.208,1.284
599.481,1.294
599.754,1.298
600.026,1.290
600.299,1.278
600.572,1.269
600.844,1.267
601.117,1.262
601.390,1.258
601.662,1.257
601.935,1.257
602.207,1.259
602.480,1.265
602.752,1.267
603.025,1.262
603.297,1.259
603.570,1.267
603.842,1.287
604.115,1.301
604.387,1.307
604.660,1.299
604.932,1.290
605.204,1.289
605.477,1.296
605.749,1.308
606.021,1.317
606.294,1.320
606.566,1.311
606.838,1.308
607.110,1.312
607.383,1.323
607.655,1.328
607.927,1.335
608.199,1.344
608.471,1.351
608.743,1.346
609.015,1.339
609.287,1.333
609.559,1.334
609.831,1.337
610.103,1.338
610.375,1.333
610.647,1.323
610.919,1.314
611.191,1.311
611.463,1.314
611.735,1.315
612.007,1.307
612.278,1.295
612.550,1.289
612.822,1.295
613.094,1.303
613.365,1.308
613.637,1.312
613.909,1.313
614.180,1.312
614.452,1.303
614.723,1.295
614.995,1.287
615.266,1.287
615.538,1.294
615.809,1.300
616.081,1.295
616.352,1.284
616.623,1.276
616.895,1.275
617.166,1.270
617.437,1.265
617.709,1.264
617.980,1.270
618.251,1.280
618.522,1.288
618.793,1.303
619.065,1.320
619.336,1.320
619.607,1.309
619.878,1.301
620.149,1.311
620.420,1.315
620.691,1.309
620.962,1.303
621.232,1.305
621.503,1.301
621.774,1.296
622.045,1.292
622.316,1.303
622.586,1.319
622.857,1.332
623.128,1.332
623.398,1.324
623.669,1.311
623.940,1.296
624.210,1.285
624.481,1.285
624.751,1.291
625.021,1.292
625.292,1.285
625.562,1.281
625.833,1.279
626.103,1.275
626.373,1.271
626.643,1.273
626.914,1.277
627.184,1.280
627.454,1.279
627.724,1.279
627.994,1.282
628.264,1.284
628.534,1.281
628.804,1.276
629.074,1.278
629.344,1.285
629.614,1.289
629.884,1.280
630.154,1.267
630.424,1.254
630.693,1.244
630.963,1.234
631.233,1.227
631.502,1.229
631.772,1.244
632.041,1.264
632.311,1.275
632.581,1.276
632.850,1.270
633.119,1.262
633.389,1.254
633.658,1.250
633.928,1.255
634.197,1.263
634.466,1.276
634.735,1.285
635.004,1.283
635.274,1.273
635.543,1.262
635.812,1.260
636.081,1.259
636.350,1.259
636.619,1.260
636.888,1.260
637.157,1.264
637.426,1.270
637.694,1.276
637.963,1.275
638.232,1.269
638.501,1.260
638.769,1.258
639.038,1.261
639.307,1.274
639.575,1.286
639.844,1.287
640.112,1.278
640.381,1.265
640.649,1.263
640.917,1.265
641.186,1.266
641.454,1.265
641.722,1.265
641.991,1.267
642.259,1.261
642.527,1.254
642.795,1.246
643.063,1.238
643.331,1.235
643.599,1.237
643.867,1.247
644.135,1.256
644.403,1.262
644.671,1.265
644.939,1.270
645.206,1.273
645.474,1.280
645.742,1.274
646.009,1.261
646.277,1.253
646.545,1.256
646.812,1.273
647.080,1.290
647.347,1.297
647.615,1.290
647.882,1.273
648.149,1.256
648.417,1.248
648.684,1.253
648.951,1.264
649.219,1.271
649.486,1.270
649.753,1.262
650.020,1.250
650.287,1.240
650.554,1.240
650.821,1.246
651.088,1.254
651.355,1.265
651.622,1.272
651.889,1.275
652.155,1.267
652.422,1.263
652.689,1.264
652.956,1.268
653.222,1.275
653.489,1.291
653.755,1.302
654.022,1.295
654.288,1.273
654.555,1.260
654.821,1.263
655.088,1.273
655.354,1.282
655.620,1.290
655.887,1.295
656.153,1.298
656.419,1.295
656.685,1.292
656.951,1.288
657.217,1.283
657.483,1.275
657.749,1.269
658.015,1.270
658.281,1.273
658.547,1.270
658.813,1.260
659.079,1.250
659.345,1.242
659.610,1.241
659.876,1.243
660.142,1.246
660.407,1.247
660.673,1.247
660.939,1.252
661.204,1.252
661.470,1.249
661.735,1.248
662.000,1.254
662.266,1.258
662.531,1.254
662.796,1.248
663.062,1.241
663.327,1.240
663.592,1.241
663.857,1.245
664.122,1.247
664.388,1.247
664.653,1.251
664.918,1.256
665.183,1.258
665.448,1.258
665.712,1.260
665.977,1.267
666.242,1.265
666.507,1.248
666.772,1.229
667.037,1.219
667.301,1.226
667.566,1.234
667.831,1.241
668.095,1.245
668.360,1.248
668.624,1.247
668.889,1.251
669.153,1.250
669.418,1.250
669.682,1.248
669.946,1.253
670.211,1.262
670.475,1.271
670.739,1.283
671.004,1.301
671.268,1.332
671.532,1.358
671.796,1.347
672.060,1.317
672.324,1.289
672.588,1.293
672.852,1.309
673.116,1.350
673.380,1.385
673.644,1.365
673.908,1.311
674.172,1.260
674.436,1.257
674.700,1.261
674.963,1.266
675.227,1.267
675.491,1.262
675.754,1.255
676.018,1.249
676.282,1.253
676.545,1.256
676.809,1.253
677.072,1.245
677.336,1.240
677.599,1.241
677.863,1.243
678.126,1.252
678.389,1.265
678.653,1.274
678.916,1.270
679.179,1.254
679.442,1.248
679.706,1.252
679.969,1.258
680.232,1.264
680.495,1.276
680.758,1.287
681.021,1.284
681.284,1.268
681.547,1.254
681.810,1.257
682.073,1.274
682.336,1.287
682.599,1.286
682.862,1.278
683.125,1.273
683.388,1.274
683.651,1.275
683.913,1.272
684.176,1.263
684.439,1.251
684.702,1.240
684.964,1.234
685.227,1.236
685.490,1.250
685.752,1.269
686.015,1.275
686.277,1.270
686.540,1.257
686.802,1.248
687.065,1.249
687.327,1.256
687.590,1.262
687.852,1.255
688.115,1.239
688.377,1.227
688.639,1.225
688.902,1.231
689.164,1.241
689.426,1.258
689.689,1.270
689.951,1.272
690.213,1.266
690.475,1.261
690.737,1.257
691.000,1.251
691.262,1.247
691.524,1.252
691.786,1.266
692.048,1.278
692.310,1.274
692.572,1.252
692.834,1.232
693.096,1.228
693.358,1.241
693.620,1.259
693.882,1.274
694.144,1.277
694.406,1.268
694.668,1.259
694.930,1.253
695.192,1.253
695.453,1.257
695.715,1.259
695.977,1.255
696.239,1.244
696.501,1.242
696.762,1.248
697.024,1.252
697.286,1.245
697.548,1.236
697.809,1.232
698.071,1.232
698.333,1.234
698.594,1.241
698.856,1.254
699.118,1.263
699.379,1.268
699.641,1.271
699.902,1.275
700.164,1.273
700.426,1.263
700.687,1.252
700.949,1.250
701.210,1.253
701.472,1.251
701.733,1.241
701.995,1.236
702.256,1.235
702.518,1.236
702.779,1.235
703.041,1.248
703.302,1.263
703.563,1.264
703.825,1.253
704.086,1.241
704.348,1.238
704.609,1.241
704.871,1.253
705.132,1.267
705.393,1.267
705.655,1.263
705.916,1.260
706.177,1.262
706.439,1.261
706.700,1.256
706.961,1.253
707.223,1.247
707.484,1.231
707.745,1.219
708.007,1.208
708.268,1.200
708.529,1.187
708.790,1.169
709.052,1.161
709.313,1.162
709.574,1.169
709.835,1.172
710.097,1.165
710.358,1.150
710.619,1.135
710.881,1.128
711.142,1.126
711.403,1.126
711.664,1.121
711.926,1.116
712.187,1.116
712.448,1.122
712.709,1.134
712.970,1.145
713.232,1.150
713.493,1.150
713.754,1.146
714.015,1.148
714.277,1.157
714.538,1.170
714.799,1.182
715.060,1.186
715.322,1.181
715.583,1.170
715.844,1.158
716.105,1.147
716.367,1.141
716.628,1.142
716.889,1.149
717.150,1.148
717.411,1.144
717.673,1.142
717.934,1.145
718.195,1.150
718.457,1.142
718.718,1.132
718.979,1.128
719.240,1.134
719.502,1.146
719.763,1.155
720.024,1.159
720.286,1.161
720.547,1.154
720.808,1.144
721.069,1.136
721.331,1.142
721.592,1.155
721.853,1.163
722.115,1.164
722.376,1.159
722.638,1.155
722.899,1.151
723.160,1.146
723.422,1.141
723.683,1.139
723.944,1.143
724.206,1.146
724.467,1.141
724.729,1.134
724.990,1.137
725.252,1.144
725.513,1.143
725.775,1.133
726.036,1.126
726.298,1.128
726.559,1.134
726.821,1.136
727.082,1.135
727.344,1.134
727.605,1.129
727.867,1.122
728.128,1.121
728.390,1.125
728.652,1.137
728.913,1.153
729.175,1.162
729.436,1.167
729.698,1.166
729.960,1.164
730.221,1.155
730.483,1.140
730.745,1.136
731.007,1.137
731.268,1.141
731.530,1.141
731.792,1.141
732.054,1.144
732.315,1.152
732.577,1.158
732.839,1.149
733.101,1.138
733.363,1.130
733.625,1.134
733.887,1.139
734.149,1.141
734.411,1.144
734.673,1.146
734.935,1.143
735.197,1.139
735.459,1.144
735.721,1.152
735.983,1.151
736.245,1.138
736.507,1.133
736.769,1.141
737.031,1.151
737.293,1.146
737.555,1.133
737.818,1.121
738.080,1.115
738.342,1.115
738.604,1.115
738.867,1.118
739.129,1.121
739.391,1.119
739.654,1.116
739.916,1.115
740.178,1.119
740.441,1.127
740.703,1.128
740.966,1.124
741.228,1.119
741.491,1.119
741.753,1.127
742.016,1.131
742.278,1.134
742.541,1.132
742.804,1.137
743.066,1.146
743.329,1.152
743.592,1.148
743.854,1.144
744.117,1.146
744.380,1.148
744.643,1.142
744.905,1.132
745.168,1.128
745.431,1.127
745.694,1.123
745.957,1.117
746.220,1.112
746.483,1.108
746.746,1.107
747.009,1.118
