Wavelength (nm),Intensity B35.2,,D:/Lab/LED Spectras v2/Spectrometer Data (Blue 25.3-37).sp,,,B35.2,
379.792,1.967,,2018-06-14 15:22:11,,Integration Time,138 ms,
380.000,1.961,,Analyze Light,,Number of Scans to Average,25,
380.209,1.959,,,,Smoothing,1,
380.418,1.972
380.627,1.990
380.837,2.007
381.048,2.015
381.259,2.014
381.471,2.010
381.683,2.014
381.896,2.022
382.110,2.027
382.324,2.039
382.538,2.059
382.753,2.074
382.969,2.065
383.185,2.052
383.402,2.040
383.619,2.048
383.837,2.062
384.055,2.089
384.274,2.107
384.493,2.115
384.712,2.111
384.932,2.110
385.153,2.113
385.374,2.124
385.596,2.138
385.818,2.157
386.040,2.173
386.263,2.187
386.487,2.194
386.710,2.192
386.935,2.180
387.159,2.170
387.385,2.164
387.610,2.165
387.836,2.167
388.063,2.176
388.289,2.187
388.517,2.195
388.744,2.195
388.972,2.205
389.201,2.214
389.430,2.225
389.659,2.233
389.889,2.242
390.119,2.251
390.349,2.259
390.580,2.270
390.811,2.271
391.042,2.266
391.274,2.262
391.507,2.265
391.739,2.267
391.972,2.267
392.205,2.273
392.439,2.286
392.673,2.299
392.907,2.309
393.142,2.323
393.377,2.337
393.612,2.351
393.848,2.357
394.084,2.362
394.320,2.366
394.557,2.379
394.794,2.385
395.031,2.396
395.269,2.402
395.507,2.413
395.745,2.418
395.983,2.425
396.222,2.434
396.461,2.453
396.700,2.476
396.940,2.488
397.180,2.487
397.420,2.476
397.660,2.472
397.901,2.471
398.142,2.477
398.383,2.477
398.625,2.474
398.866,2.480
399.108,2.502
399.351,2.537
399.593,2.548
399.836,2.550
400.079,2.541
400.322,2.540
400.566,2.537
400.809,2.533
401.053,2.535
401.298,2.541
401.542,2.554
401.787,2.571
402.031,2.584
402.277,2.593
402.522,2.593
402.767,2.600
403.013,2.601
403.259,2.608
403.505,2.610
403.752,2.611
403.998,2.609
404.245,2.620
404.492,2.634
404.739,2.646
404.986,2.655
405.234,2.667
405.482,2.673
405.730,2.672
405.978,2.673
406.226,2.670
406.475,2.662
406.723,2.660
406.972,2.674
407.221,2.696
407.470,2.707
407.720,2.709
407.969,2.701
408.219,2.709
408.469,2.724
408.719,2.742
408.969,2.748
409.219,2.757
409.470,2.766
409.720,2.777
409.971,2.785
410.222,2.800
410.473,2.806
410.724,2.807
410.976,2.808
411.227,2.824
411.479,2.837
411.731,2.846
411.983,2.844
412.235,2.846
412.487,2.845
412.740,2.850
412.992,2.854
413.245,2.863
413.497,2.869
413.750,2.874
414.003,2.868
414.257,2.860
414.510,2.856
414.763,2.868
415.017,2.883
415.270,2.895
415.524,2.900
415.778,2.906
416.032,2.909
416.286,2.922
416.540,2.931
416.794,2.945
417.049,2.946
417.303,2.951
417.558,2.953
417.812,2.959
418.067,2.962
418.322,2.962
418.577,2.953
418.832,2.945
419.088,2.927
419.343,2.927
419.598,2.921
419.854,2.934
420.109,2.942
420.365,2.962
420.621,2.973
420.876,2.984
421.132,2.982
421.388,2.980
421.645,2.971
421.901,2.976
422.157,2.984
422.413,2.999
422.670,3.007
422.926,3.016
423.183,3.014
423.439,3.026
423.696,3.041
423.953,3.081
424.210,3.112
424.467,3.131
424.724,3.131
424.981,3.119
425.238,3.124
425.495,3.152
425.753,3.185
426.010,3.211
426.267,3.223
426.525,3.253
426.782,3.286
427.040,3.329
427.298,3.372
427.555,3.430
427.813,3.479
428.071,3.526
428.329,3.562
428.587,3.605
428.845,3.654
429.103,3.712
429.361,3.773
429.619,3.841
429.878,3.912
430.136,3.992
430.394,4.070
430.653,4.170
430.911,4.279
431.170,4.397
431.428,4.503
431.687,4.618
431.946,4.733
432.204,4.858
432.463,4.982
432.722,5.117
432.981,5.254
433.240,5.411
433.499,5.577
433.758,5.762
434.017,5.932
434.276,6.112
434.535,6.291
434.794,6.491
435.053,6.699
435.312,6.926
435.572,7.157
435.831,7.408
436.090,7.673
436.350,7.961
436.609,8.255
436.869,8.547
437.128,8.838
437.388,9.149
437.647,9.474
437.907,9.826
438.166,10.172
438.426,10.537
438.686,10.911
438.946,11.306
439.205,11.718
439.465,12.157
439.725,12.619
439.985,13.093
440.245,13.553
440.505,14.028
440.765,14.510
441.025,15.010
441.285,15.520
441.545,16.054
441.805,16.602
442.065,17.175
442.325,17.761
442.585,18.391
442.846,19.039
443.106,19.739
443.366,20.456
443.626,21.199
443.887,21.942
444.147,22.717
444.407,23.516
444.668,24.368
444.928,25.251
445.189,26.204
445.449,27.190
445.710,28.219
445.970,29.278
446.231,30.400
446.491,31.593
446.752,32.832
447.012,34.121
447.273,35.468
447.534,36.871
447.794,38.318
448.055,39.813
448.316,41.409
448.577,43.109
448.837,44.899
449.098,46.759
449.359,48.668
449.620,50.614
449.881,52.603
450.142,54.653
450.403,56.780
450.664,58.978
450.924,61.225
451.185,63.522
451.446,65.829
451.707,68.155
451.969,70.482
452.230,72.816
452.491,75.124
452.752,77.367
453.013,79.531
453.274,81.589
453.535,83.459
453.796,85.055
454.058,86.351
454.319,87.424
454.580,88.338
454.841,89.135
455.103,89.820
455.364,90.412
455.625,90.916
455.887,91.332
456.148,91.657
456.409,91.897
456.671,92.065
456.932,92.168
457.194,92.206
457.455,92.180
457.716,92.089
457.978,91.948
458.239,91.754
458.501,91.511
458.763,91.204
459.024,90.824
459.286,90.361
459.547,89.812
459.809,89.160
460.071,88.411
460.332,87.558
460.594,86.583
460.856,85.428
461.117,84.038
461.379,82.443
461.641,80.688
461.903,78.865
462.164,77.008
462.426,75.145
462.688,73.291
462.950,71.451
463.212,69.659
463.474,67.927
463.736,66.245
463.998,64.632
464.260,63.084
464.522,61.623
464.784,60.218
465.046,58.873
465.308,57.635
465.570,56.488
465.832,55.411
466.094,54.379
466.356,53.391
466.618,52.442
466.880,51.510
467.142,50.597
467.405,49.737
467.667,48.934
467.929,48.190
468.191,47.463
468.454,46.747
468.716,46.034
468.978,45.311
469.241,44.576
469.503,43.844
469.765,43.139
470.028,42.438
470.290,41.734
470.552,41.021
470.815,40.321
471.077,39.621
471.340,38.925
471.602,38.223
471.865,37.503
472.128,36.775
472.390,36.046
472.653,35.334
472.915,34.610
473.178,33.882
473.441,33.135
473.703,32.387
473.966,31.616
474.229,30.847
474.492,30.069
474.755,29.295
475.017,28.531
475.280,27.790
475.543,27.058
475.806,26.314
476.069,25.554
476.332,24.807
476.595,24.080
476.858,23.385
477.121,22.717
477.384,22.072
477.647,21.461
477.910,20.859
478.173,20.278
478.436,19.707
478.699,19.158
478.962,18.625
479.226,18.125
479.489,17.636
479.752,17.173
480.015,16.706
480.279,16.264
480.542,15.825
480.805,15.406
481.069,14.995
481.332,14.613
481.595,14.245
481.859,13.920
482.122,13.604
482.386,13.293
482.649,12.971
482.913,12.650
483.177,12.338
483.440,12.035
483.704,11.755
483.967,11.510
484.231,11.277
484.495,11.050
484.759,10.810
485.022,10.564
485.286,10.327
485.550,10.096
485.814,9.854
486.078,9.614
486.342,9.377
486.606,9.172
486.869,8.978
487.133,8.799
487.397,8.613
487.662,8.428
487.926,8.230
488.190,8.036
488.454,7.825
488.718,7.622
488.982,7.409
489.246,7.222
489.511,7.030
489.775,6.852
490.039,6.672
490.304,6.501
490.568,6.319
490.832,6.145
491.097,5.978
491.361,5.836
491.626,5.690
491.890,5.550
492.155,5.399
492.419,5.263
492.684,5.111
492.949,4.967
493.213,4.823
493.478,4.702
493.743,4.575
494.008,4.435
494.272,4.298
494.537,4.184
494.802,4.084
495.067,3.997
495.332,3.909
495.597,3.831
495.862,3.740
496.127,3.656
496.392,3.564
496.657,3.479
496.922,3.393
497.187,3.324
497.452,3.262
497.718,3.216
497.983,3.157
498.248,3.094
498.513,3.017
498.779,2.964
499.044,2.926
499.310,2.886
499.575,2.833
499.841,2.787
500.106,2.747
500.372,2.710
500.637,2.668
500.903,2.641
501.168,2.611
501.434,2.571
501.700,2.519
501.966,2.477
502.231,2.441
502.497,2.410
502.763,2.373
503.029,2.340
503.295,2.315
503.561,2.298
503.827,2.289
504.093,2.274
504.359,2.249
504.625,2.220
504.891,2.191
505.157,2.174
505.423,2.149
505.690,2.121
505.956,2.093
506.222,2.079
506.489,2.082
506.755,2.091
507.021,2.091
507.288,2.082
507.554,2.059
507.821,2.038
508.087,2.018
508.354,2.015
508.621,2.012
508.887,2.000
509.154,1.980
509.421,1.963
509.687,1.948
509.954,1.932
510.221,1.917
510.488,1.916
510.755,1.917
511.022,1.919
511.289,1.903
511.556,1.888
511.823,1.874
512.090,1.875
512.357,1.872
512.624,1.867
512.891,1.854
513.159,1.841
513.426,1.826
513.693,1.814
513.960,1.808
514.228,1.807
514.495,1.807
514.763,1.808
515.030,1.805
515.298,1.796
515.565,1.788
515.833,1.780
516.100,1.774
516.368,1.770
516.636,1.766
516.904,1.767
517.171,1.757
517.439,1.747
517.707,1.733
517.975,1.729
518.243,1.730
518.511,1.730
518.779,1.719
519.047,1.714
519.315,1.711
519.583,1.707
519.851,1.694
520.119,1.688
520.387,1.693
520.656,1.699
520.924,1.702
521.192,1.701
521.461,1.701
521.729,1.704
521.997,1.707
522.266,1.709
522.534,1.704
522.803,1.701
523.071,1.694
523.340,1.681
523.609,1.664
523.877,1.654
524.146,1.656
524.415,1.663
524.684,1.671
524.952,1.668
525.221,1.666
525.490,1.668
525.759,1.674
526.028,1.677
526.297,1.666
526.566,1.652
526.835,1.640
527.104,1.640
527.373,1.644
527.642,1.643
527.912,1.633
528.181,1.625
528.450,1.626
528.719,1.634
528.989,1.648
529.258,1.663
529.528,1.666
529.797,1.658
530.067,1.651
530.336,1.645
530.606,1.638
530.875,1.623
531.145,1.617
531.414,1.619
531.684,1.627
531.954,1.631
532.224,1.627
532.493,1.613
532.763,1.602
533.033,1.601
533.303,1.608
533.573,1.614
533.843,1.607
534.113,1.598
534.383,1.591
534.653,1.595
534.923,1.602
535.193,1.608
535.463,1.615
535.733,1.622
536.004,1.630
536.274,1.634
536.544,1.629
536.814,1.621
537.085,1.612
537.355,1.616
537.626,1.631
537.896,1.639
538.166,1.640
538.437,1.631
538.707,1.625
538.978,1.626
539.249,1.636
539.519,1.642
539.790,1.634
540.061,1.623
540.331,1.628
540.602,1.642
540.873,1.651
541.144,1.649
541.414,1.643
541.685,1.635
541.956,1.631
542.227,1.631
542.498,1.628
542.769,1.625
543.040,1.630
543.311,1.641
543.582,1.653
543.853,1.657
544.124,1.660
544.396,1.661
544.667,1.662
544.938,1.655
545.209,1.631
545.480,1.617
545.752,1.613
546.023,1.628
546.294,1.630
546.566,1.624
546.837,1.611
547.109,1.604
547.380,1.600
547.652,1.598
547.923,1.596
548.195,1.602
548.466,1.613
548.738,1.626
549.009,1.626
549.281,1.619
549.553,1.607
549.824,1.592
550.096,1.582
550.368,1.577
550.640,1.580
550.911,1.586
551.183,1.602
551.455,1.626
551.727,1.642
551.999,1.635
552.271,1.611
552.543,1.592
552.815,1.582
553.087,1.589
553.359,1.598
553.631,1.603
553.903,1.604
554.175,1.608
554.447,1.620
554.719,1.625
554.991,1.622
555.263,1.614
555.535,1.605
555.808,1.595
556.080,1.586
556.352,1.579
556.624,1.576
556.897,1.571
557.169,1.569
557.441,1.565
557.714,1.561
557.986,1.558
558.258,1.555
558.531,1.563
558.803,1.568
559.076,1.575
559.348,1.568
559.621,1.561
559.893,1.563
560.166,1.568
560.438,1.570
560.711,1.564
560.983,1.560
561.256,1.564
561.528,1.573
561.801,1.585
562.074,1.594
562.346,1.602
562.619,1.606
562.892,1.603
563.164,1.594
563.437,1.592
563.710,1.594
563.983,1.590
564.255,1.580
564.528,1.582
564.801,1.594
565.074,1.600
565.346,1.594
565.619,1.589
565.892,1.595
566.165,1.596
566.438,1.579
566.711,1.557
566.984,1.544
567.257,1.543
567.529,1.551
567.802,1.569
568.075,1.589
568.348,1.592
568.621,1.589
568.894,1.580
569.167,1.577
569.440,1.568
569.713,1.551
569.986,1.544
570.259,1.536
570.532,1.543
570.805,1.548
571.078,1.554
571.351,1.564
571.625,1.573
571.898,1.573
572.171,1.559
572.444,1.545
572.717,1.549
572.990,1.561
573.263,1.558
573.536,1.542
573.809,1.523
574.083,1.520
574.356,1.532
574.629,1.559
574.902,1.576
575.175,1.575
575.448,1.557
575.721,1.542
575.995,1.540
576.268,1.543
576.541,1.552
576.814,1.563
577.087,1.575
577.361,1.579
577.634,1.574
577.907,1.554
578.180,1.537
578.453,1.529
578.727,1.537
579.000,1.544
579.273,1.550
579.546,1.562
579.820,1.579
580.093,1.584
580.366,1.575
580.639,1.559
580.913,1.550
581.186,1.543
581.459,1.537
581.732,1.523
582.005,1.510
582.279,1.505
582.552,1.511
582.825,1.522
583.098,1.531
583.372,1.544
583.645,1.554
583.918,1.561
584.191,1.559
584.464,1.554
584.738,1.551
585.011,1.549
585.284,1.548
585.557,1.544
585.831,1.546
586.104,1.560
586.377,1.587
586.650,1.605
586.923,1.602
587.196,1.593
587.470,1.579
587.743,1.572
588.016,1.562
588.289,1.565
588.562,1.577
588.835,1.580
589.109,1.570
589.382,1.553
589.655,1.540
589.928,1.531
590.201,1.524
590.474,1.534
590.747,1.551
591.020,1.566
591.293,1.569
591.567,1.564
591.840,1.555
592.113,1.545
592.386,1.533
592.659,1.522
592.932,1.520
593.205,1.529
593.478,1.536
593.751,1.537
594.024,1.534
594.297,1.530
594.570,1.528
594.843,1.534
595.116,1.545
595.389,1.550
595.662,1.542
595.934,1.538
596.207,1.541
596.480,1.553
596.753,1.565
597.026,1.566
597.299,1.563
597.572,1.558
597.844,1.551
598.117,1.540
598.390,1.533
598.663,1.530
598.936,1.535
599.208,1.543
599.481,1.554
599.754,1.561
600.026,1.544
600.299,1.521
600.572,1.502
600.844,1.497
601.117,1.492
601.390,1.493
601.662,1.498
601.935,1.501
602.207,1.497
602.480,1.499
602.752,1.504
603.025,1.504
603.297,1.506
603.570,1.520
603.842,1.544
604.115,1.555
604.387,1.558
604.660,1.546
604.932,1.541
605.204,1.542
605.477,1.554
605.749,1.568
606.021,1.581
606.294,1.587
606.566,1.574
606.838,1.565
607.110,1.564
607.383,1.575
607.655,1.582
607.927,1.589
608.199,1.595
608.471,1.595
608.743,1.585
609.015,1.572
609.287,1.562
609.559,1.563
609.831,1.569
610.103,1.575
610.375,1.572
610.647,1.562
610.919,1.550
611.191,1.548
611.463,1.555
611.735,1.563
612.007,1.558
612.278,1.545
612.550,1.536
612.822,1.540
613.094,1.549
613.365,1.551
613.637,1.556
613.909,1.560
614.180,1.567
614.452,1.562
614.723,1.549
614.995,1.534
615.266,1.528
615.538,1.537
615.809,1.549
616.081,1.548
616.352,1.538
616.623,1.529
616.895,1.528
617.166,1.526
617.437,1.521
617.709,1.520
617.980,1.524
618.251,1.535
618.522,1.544
618.793,1.563
619.065,1.584
619.336,1.585
619.607,1.567
619.878,1.549
620.149,1.555
620.420,1.564
620.691,1.564
620.962,1.562
621.232,1.565
621.503,1.559
621.774,1.550
622.045,1.543
622.316,1.550
622.586,1.564
622.857,1.582
623.128,1.591
623.398,1.583
623.669,1.568
623.940,1.550
624.210,1.539
624.481,1.542
624.751,1.550
625.021,1.548
625.292,1.534
625.562,1.526
625.833,1.522
626.103,1.517
626.373,1.507
626.643,1.508
626.914,1.513
627.184,1.524
627.454,1.525
627.724,1.524
627.994,1.523
628.264,1.526
628.534,1.519
628.804,1.516
629.074,1.523
629.344,1.536
629.614,1.540
629.884,1.527
630.154,1.514
630.424,1.501
630.693,1.490
630.963,1.477
631.233,1.465
631.502,1.466
631.772,1.483
632.041,1.508
632.311,1.523
632.581,1.529
632.850,1.525
633.119,1.515
633.389,1.499
633.658,1.488
633.928,1.489
634.197,1.500
634.466,1.514
634.735,1.527
635.004,1.527
635.274,1.524
635.543,1.518
635.812,1.519
636.081,1.524
636.350,1.529
636.619,1.530
636.888,1.525
637.157,1.526
637.426,1.534
637.694,1.543
637.963,1.541
638.232,1.537
638.501,1.524
638.769,1.519
639.038,1.520
639.307,1.532
639.575,1.544
639.844,1.536
640.112,1.521
640.381,1.501
640.649,1.498
640.917,1.505
641.186,1.510
641.454,1.518
641.722,1.516
641.991,1.518
642.259,1.507
642.527,1.501
642.795,1.497
643.063,1.492
643.331,1.486
643.599,1.484
643.867,1.492
644.135,1.496
644.403,1.505
644.671,1.509
644.939,1.524
645.206,1.531
645.474,1.537
645.742,1.526
646.009,1.509
646.277,1.499
646.545,1.502
646.812,1.522
647.080,1.539
647.347,1.549
647.615,1.544
647.882,1.527
648.149,1.510
648.417,1.498
648.684,1.501
648.951,1.518
649.219,1.533
649.486,1.541
649.753,1.531
650.020,1.513
650.287,1.498
650.554,1.490
650.821,1.492
651.088,1.494
651.355,1.504
651.622,1.507
651.889,1.510
652.155,1.501
652.422,1.503
652.689,1.512
652.956,1.527
653.222,1.542
653.489,1.558
653.755,1.567
654.022,1.557
654.288,1.534
654.555,1.520
654.821,1.522
655.088,1.538
655.354,1.549
655.620,1.559
655.887,1.559
656.153,1.559
656.419,1.553
656.685,1.544
656.951,1.536
657.217,1.531
657.483,1.523
657.749,1.520
658.015,1.522
658.281,1.526
658.547,1.521
658.813,1.507
659.079,1.496
659.345,1.488
659.610,1.484
659.876,1.483
660.142,1.486
660.407,1.490
660.673,1.495
660.939,1.501
661.204,1.503
661.470,1.495
661.735,1.486
662.000,1.489
662.266,1.495
662.531,1.498
662.796,1.496
663.062,1.490
663.327,1.484
663.592,1.485
663.857,1.489
664.122,1.491
664.388,1.489
664.653,1.494
664.918,1.507
665.183,1.514
665.448,1.520
665.712,1.522
665.977,1.528
666.242,1.528
666.507,1.510
666.772,1.493
667.037,1.479
667.301,1.485
667.566,1.492
667.831,1.499
668.095,1.501
668.360,1.501
668.624,1.493
668.889,1.496
669.153,1.494
669.418,1.497
669.682,1.497
669.946,1.503
670.211,1.515
670.475,1.527
670.739,1.545
671.004,1.560
671.268,1.588
671.532,1.613
671.796,1.598
672.060,1.572
672.324,1.545
672.588,1.555
672.852,1.569
673.116,1.606
673.380,1.641
673.644,1.621
673.908,1.568
674.172,1.517
674.436,1.517
674.700,1.523
674.963,1.528
675.227,1.528
675.491,1.520
675.754,1.510
676.018,1.506
676.282,1.513
676.545,1.520
676.809,1.516
677.072,1.503
677.336,1.494
677.599,1.495
677.863,1.498
678.126,1.503
678.389,1.515
678.653,1.524
678.916,1.521
679.179,1.502
679.442,1.493
679.706,1.495
679.969,1.501
680.232,1.509
680.495,1.524
680.758,1.537
681.021,1.530
681.284,1.506
681.547,1.490
681.810,1.497
682.073,1.523
682.336,1.543
682.599,1.543
682.862,1.533
683.125,1.531
683.388,1.535
683.651,1.532
683.913,1.519
684.176,1.502
684.439,1.484
684.702,1.469
684.964,1.462
685.227,1.468
685.490,1.489
685.752,1.513
686.015,1.527
686.277,1.523
686.540,1.510
686.802,1.499
687.065,1.499
687.327,1.504
687.590,1.505
687.852,1.496
688.115,1.482
688.377,1.475
688.639,1.476
688.902,1.482
689.164,1.493
689.426,1.506
689.689,1.515
689.951,1.512
690.213,1.512
690.475,1.512
690.737,1.513
691.000,1.506
691.262,1.500
691.524,1.507
691.786,1.523
692.048,1.536
692.310,1.533
692.572,1.511
692.834,1.487
693.096,1.478
693.358,1.491
693.620,1.515
693.882,1.533
694.144,1.534
694.406,1.523
694.668,1.512
694.930,1.503
695.192,1.497
695.453,1.494
695.715,1.497
695.977,1.496
696.239,1.488
696.501,1.485
696.762,1.496
697.024,1.507
697.286,1.504
697.548,1.497
697.809,1.496
698.071,1.497
698.333,1.492
698.594,1.487
698.856,1.489
699.118,1.495
699.379,1.499
699.641,1.506
699.902,1.512
700.164,1.513
700.426,1.508
700.687,1.503
700.949,1.504
701.210,1.501
701.472,1.497
701.733,1.489
701.995,1.493
702.256,1.495
702.518,1.495
702.779,1.492
703.041,1.504
703.302,1.522
703.563,1.525
703.825,1.512
704.086,1.502
704.348,1.501
704.609,1.506
704.871,1.513
705.132,1.524
705.393,1.520
705.655,1.510
705.916,1.505
706.177,1.507
706.439,1.511
706.700,1.507
706.961,1.504
707.223,1.500
707.484,1.484
707.745,1.469
708.007,1.453
708.268,1.442
708.529,1.429
708.790,1.412
709.052,1.401
709.313,1.400
709.574,1.404
709.835,1.408
710.097,1.402
710.358,1.390
710.619,1.378
710.881,1.367
711.142,1.360
711.403,1.352
711.664,1.352
711.926,1.347
712.187,1.351
712.448,1.356
712.709,1.368
712.970,1.379
713.232,1.385
713.493,1.390
713.754,1.393
714.015,1.399
714.277,1.407
714.538,1.417
714.799,1.428
715.060,1.432
715.322,1.426
715.583,1.413
715.844,1.400
716.105,1.389
716.367,1.381
716.628,1.379
716.889,1.378
717.150,1.372
717.411,1.364
717.673,1.363
717.934,1.368
718.195,1.371
718.457,1.362
718.718,1.352
718.979,1.350
719.240,1.357
719.502,1.371
719.763,1.381
720.024,1.388
720.286,1.391
720.547,1.385
720.808,1.378
721.069,1.373
721.331,1.378
721.592,1.391
721.853,1.398
722.115,1.402
722.376,1.401
722.638,1.399
722.899,1.396
723.160,1.388
723.422,1.383
723.683,1.380
723.944,1.382
724.206,1.382
724.467,1.379
724.729,1.375
724.990,1.380
725.252,1.387
725.513,1.385
725.775,1.372
726.036,1.363
726.298,1.365
726.559,1.373
726.821,1.374
727.082,1.369
727.344,1.361
727.605,1.357
727.867,1.352
728.128,1.354
728.390,1.356
728.652,1.366
728.913,1.378
729.175,1.387
729.436,1.390
729.698,1.391
729.960,1.389
730.221,1.384
730.483,1.369
730.745,1.362
731.007,1.360
731.268,1.363
731.530,1.367
731.792,1.370
732.054,1.375
732.315,1.380
732.577,1.383
732.839,1.378
733.101,1.367
733.363,1.356
733.625,1.354
733.887,1.358
734.149,1.362
734.411,1.372
734.673,1.382
734.935,1.389
735.197,1.386
735.459,1.386
735.721,1.388
735.983,1.385
736.245,1.371
736.507,1.365
736.769,1.371
737.031,1.379
737.293,1.375
737.555,1.363
737.818,1.353
738.080,1.349
738.342,1.350
738.604,1.353
738.867,1.357
739.129,1.360
739.391,1.360
739.654,1.358
739.916,1.356
740.178,1.363
740.441,1.375
740.703,1.381
740.966,1.378
741.228,1.372
741.491,1.368
741.753,1.371
742.016,1.371
742.278,1.371
742.541,1.372
742.804,1.374
743.066,1.380
743.329,1.382
743.592,1.379
743.854,1.380
744.117,1.387
744.380,1.396
744.643,1.393
744.905,1.382
745.168,1.372
745.431,1.361
745.694,1.352
745.957,1.345
746.220,1.343
746.483,1.342
746.746,1.343
747.009,1.359
747.272,1.381
