Wavelength (nm),Intensity Source #95,,C:/Users/Brend/Desktop/LED Spectras v2/Spectrometer Data.sp,,,Source #95,
379.792,1.863,,2018-06-14 10:01:43,,Integration Time,130 ms,
380.000,1.861,,Analyze Light,,Number of Scans to Average,25,
380.209,1.857,,,,Smoothing,1,
380.418,1.866
380.627,1.886
380.837,1.900
381.048,1.905
381.259,1.902
381.471,1.905
381.683,1.910
381.896,1.914
382.110,1.916
382.324,1.928
382.538,1.947
382.753,1.964
382.969,1.962
383.185,1.957
383.402,1.953
383.619,1.961
383.837,1.973
384.055,1.992
384.274,2.014
384.493,2.032
384.712,2.042
384.932,2.049
385.153,2.054
385.374,2.062
385.596,2.068
385.818,2.078
386.040,2.088
386.263,2.103
386.487,2.110
386.710,2.110
386.935,2.096
387.159,2.090
387.385,2.088
387.610,2.093
387.836,2.101
388.063,2.115
388.289,2.132
388.517,2.143
388.744,2.147
388.972,2.156
389.201,2.163
389.430,2.172
389.659,2.182
389.889,2.198
390.119,2.214
390.349,2.221
390.580,2.226
390.811,2.226
391.042,2.225
391.274,2.231
391.507,2.241
391.739,2.250
391.972,2.248
392.205,2.253
392.439,2.264
392.673,2.281
392.907,2.293
393.142,2.311
393.377,2.330
393.612,2.351
393.848,2.360
394.084,2.364
394.320,2.362
394.557,2.369
394.794,2.375
395.031,2.383
395.269,2.383
395.507,2.384
395.745,2.383
395.983,2.389
396.222,2.403
396.461,2.426
396.700,2.446
396.940,2.460
397.180,2.469
397.420,2.469
397.660,2.468
397.901,2.470
398.142,2.478
398.383,2.485
398.625,2.478
398.866,2.480
399.108,2.497
399.351,2.529
399.593,2.541
399.836,2.542
400.079,2.533
400.322,2.532
400.566,2.528
400.809,2.527
401.053,2.532
401.298,2.540
401.542,2.555
401.787,2.578
402.031,2.600
402.277,2.611
402.522,2.607
402.767,2.609
403.013,2.609
403.259,2.622
403.505,2.628
403.752,2.631
403.998,2.626
404.245,2.635
404.492,2.657
404.739,2.677
404.986,2.683
405.234,2.685
405.482,2.688
405.730,2.692
405.978,2.700
406.226,2.707
406.475,2.706
406.723,2.706
406.972,2.712
407.221,2.725
407.470,2.727
407.720,2.732
407.969,2.728
408.219,2.743
408.469,2.751
408.719,2.771
408.969,2.777
409.219,2.790
409.470,2.802
409.720,2.818
409.971,2.829
410.222,2.845
410.473,2.858
410.724,2.868
410.976,2.873
411.227,2.883
411.479,2.887
411.731,2.894
411.983,2.890
412.235,2.892
412.487,2.882
412.740,2.884
412.992,2.887
413.245,2.901
413.497,2.912
413.750,2.928
414.003,2.931
414.257,2.932
414.510,2.928
414.763,2.944
415.017,2.959
415.270,2.970
415.524,2.968
415.778,2.970
416.032,2.972
416.286,2.984
416.540,2.992
416.794,3.003
417.049,3.006
417.303,3.011
417.558,3.011
417.812,3.007
418.067,2.999
418.322,2.997
418.577,2.996
418.832,2.989
419.088,2.979
419.343,2.976
419.598,2.970
419.854,2.974
420.109,2.977
420.365,2.993
420.621,2.998
420.876,3.002
421.132,2.993
421.388,2.983
421.645,2.974
421.901,2.979
422.157,2.987
422.413,3.002
422.670,3.007
422.926,3.008
423.183,2.999
423.439,3.007
423.696,3.021
423.953,3.058
424.210,3.090
424.467,3.117
424.724,3.121
424.981,3.122
425.238,3.121
425.495,3.144
425.753,3.164
426.010,3.190
426.267,3.205
426.525,3.236
426.782,3.266
427.040,3.300
427.298,3.333
427.555,3.379
427.813,3.421
428.071,3.469
428.329,3.513
428.587,3.570
428.845,3.627
429.103,3.695
429.361,3.753
429.619,3.815
429.878,3.874
430.136,3.949
430.394,4.026
430.653,4.124
430.911,4.227
431.170,4.340
431.428,4.433
431.687,4.534
431.946,4.640
432.204,4.775
432.463,4.916
432.722,5.061
432.981,5.200
433.240,5.354
433.499,5.520
433.758,5.699
434.017,5.870
434.276,6.049
434.535,6.232
434.794,6.439
435.053,6.646
435.312,6.864
435.572,7.087
435.831,7.336
436.090,7.609
436.350,7.897
436.609,8.189
436.869,8.476
437.128,8.763
437.388,9.065
437.647,9.373
437.907,9.710
438.166,10.045
438.426,10.403
438.686,10.773
438.946,11.173
439.205,11.581
439.465,12.015
439.725,12.479
439.985,12.967
440.245,13.439
440.505,13.925
440.765,14.421
441.025,14.949
441.285,15.484
441.545,16.030
441.805,16.593
442.065,17.175
442.325,17.791
442.585,18.449
442.846,19.128
443.106,19.853
443.366,20.588
443.626,21.364
443.887,22.156
444.147,22.992
444.407,23.847
444.668,24.740
444.928,25.678
445.189,26.679
445.449,27.723
445.710,28.799
445.970,29.912
446.231,31.090
446.491,32.341
446.752,33.662
447.012,35.036
447.273,36.466
447.534,37.948
447.794,39.481
448.055,41.063
448.316,42.726
448.577,44.473
448.837,46.297
449.098,48.190
449.359,50.138
449.620,52.131
449.881,54.153
450.142,56.219
450.403,58.353
450.664,60.562
450.924,62.837
451.185,65.165
451.446,67.503
451.707,69.853
451.969,72.205
452.230,74.550
452.491,76.819
452.752,78.993
453.013,81.057
453.274,82.980
453.535,84.667
453.796,86.064
454.058,87.191
454.319,88.121
454.580,88.935
454.841,89.644
455.103,90.265
455.364,90.783
455.625,91.210
455.887,91.548
456.148,91.804
456.409,91.995
456.671,92.130
456.932,92.201
457.194,92.201
457.455,92.134
457.716,92.012
457.978,91.844
458.239,91.618
458.501,91.336
458.763,90.985
459.024,90.556
459.286,90.039
459.547,89.419
459.809,88.694
460.071,87.842
460.332,86.856
460.594,85.707
460.856,84.337
461.117,82.716
461.379,80.880
461.641,78.914
461.903,76.891
462.164,74.873
462.426,72.897
462.688,70.964
462.950,69.044
463.212,67.142
463.474,65.279
463.736,63.466
463.998,61.724
464.260,60.088
464.522,58.550
464.784,57.081
465.046,55.664
465.308,54.346
465.570,53.131
465.832,52.021
466.094,50.962
466.356,49.957
466.618,48.992
466.880,48.076
467.142,47.190
467.405,46.360
467.667,45.570
467.929,44.835
468.191,44.123
468.454,43.434
468.716,42.749
468.978,42.056
469.241,41.363
469.503,40.685
469.765,40.030
470.028,39.387
470.290,38.752
470.552,38.123
470.815,37.491
471.077,36.848
471.340,36.190
471.602,35.530
471.865,34.863
472.128,34.181
472.390,33.483
472.653,32.775
472.915,32.076
473.178,31.380
473.441,30.675
473.703,29.932
473.966,29.194
474.229,28.445
474.492,27.715
474.755,26.955
475.017,26.226
475.280,25.510
475.543,24.835
475.806,24.137
476.069,23.447
476.332,22.752
476.595,22.079
476.858,21.405
477.121,20.738
477.384,20.094
477.647,19.485
477.910,18.908
478.173,18.351
478.436,17.811
478.699,17.302
478.962,16.813
479.226,16.351
479.489,15.886
479.752,15.442
480.015,15.002
480.279,14.597
480.542,14.200
480.805,13.822
481.069,13.450
481.332,13.102
481.595,12.765
481.859,12.459
482.122,12.155
482.386,11.859
482.649,11.563
482.913,11.286
483.177,11.013
483.440,10.749
483.704,10.490
483.967,10.259
484.231,10.041
484.495,9.833
484.759,9.622
485.022,9.402
485.286,9.189
485.550,8.978
485.814,8.760
486.078,8.543
486.342,8.333
486.606,8.151
486.869,7.973
487.133,7.806
487.397,7.638
487.662,7.478
487.926,7.297
488.190,7.118
488.454,6.922
488.718,6.747
488.982,6.564
489.246,6.393
489.511,6.216
489.775,6.047
490.039,5.876
490.304,5.709
490.568,5.546
490.832,5.403
491.097,5.265
491.361,5.136
491.626,4.991
491.890,4.846
492.155,4.693
492.419,4.561
492.684,4.427
492.949,4.301
493.213,4.180
493.478,4.077
493.743,3.978
494.008,3.862
494.272,3.736
494.537,3.627
494.802,3.534
495.067,3.466
495.332,3.397
495.597,3.336
495.862,3.264
496.127,3.195
496.392,3.112
496.657,3.024
496.922,2.936
497.187,2.873
497.452,2.825
497.718,2.792
497.983,2.748
498.248,2.701
498.513,2.643
498.779,2.604
499.044,2.570
499.310,2.535
499.575,2.486
499.841,2.441
500.106,2.402
500.372,2.366
500.637,2.337
500.903,2.322
501.168,2.309
501.434,2.287
501.700,2.248
501.966,2.210
502.231,2.170
502.497,2.141
502.763,2.109
503.029,2.082
503.295,2.055
503.561,2.030
503.827,2.011
504.093,1.997
504.359,1.988
504.625,1.978
504.891,1.966
505.157,1.955
505.423,1.933
505.690,1.906
505.956,1.882
506.222,1.873
506.489,1.876
506.755,1.879
507.021,1.874
507.288,1.866
507.554,1.849
507.821,1.836
508.087,1.821
508.354,1.820
508.621,1.814
508.887,1.803
509.154,1.780
509.421,1.758
509.687,1.732
509.954,1.711
510.221,1.699
510.488,1.702
510.755,1.709
511.022,1.716
511.289,1.709
511.556,1.695
511.823,1.681
512.090,1.678
512.357,1.675
512.624,1.673
512.891,1.664
513.159,1.651
513.426,1.641
513.693,1.632
513.960,1.628
514.228,1.626
514.495,1.624
514.763,1.620
515.030,1.609
515.298,1.595
515.565,1.589
515.833,1.587
516.100,1.589
516.368,1.590
516.636,1.582
516.904,1.581
517.171,1.572
517.439,1.567
517.707,1.552
517.975,1.549
518.243,1.556
518.511,1.560
518.779,1.544
519.047,1.527
519.315,1.518
519.583,1.516
519.851,1.504
520.119,1.494
520.387,1.493
520.656,1.499
520.924,1.507
521.192,1.518
521.461,1.520
521.729,1.521
521.997,1.516
522.266,1.513
522.534,1.510
522.803,1.507
523.071,1.500
523.340,1.487
523.609,1.476
523.877,1.470
524.146,1.468
524.415,1.469
524.684,1.466
524.952,1.459
525.221,1.454
525.490,1.462
525.759,1.471
526.028,1.473
526.297,1.463
526.566,1.459
526.835,1.454
527.104,1.453
527.373,1.452
527.642,1.453
527.912,1.452
528.181,1.447
528.450,1.443
528.719,1.447
528.989,1.457
529.258,1.470
529.528,1.468
529.797,1.461
530.067,1.456
530.336,1.450
530.606,1.444
530.875,1.436
531.145,1.435
531.414,1.439
531.684,1.442
531.954,1.441
532.224,1.437
532.493,1.425
532.763,1.421
533.033,1.420
533.303,1.425
533.573,1.424
533.843,1.413
534.113,1.402
534.383,1.393
534.653,1.398
534.923,1.406
535.193,1.417
535.463,1.429
535.733,1.440
536.004,1.448
536.274,1.450
536.544,1.442
536.814,1.431
537.085,1.419
537.355,1.420
537.626,1.431
537.896,1.442
538.166,1.442
538.437,1.434
538.707,1.426
538.978,1.427
539.249,1.436
539.519,1.440
539.790,1.433
540.061,1.424
540.331,1.427
540.602,1.442
540.873,1.453
541.144,1.460
541.414,1.459
541.685,1.456
541.956,1.450
542.227,1.446
542.498,1.439
542.769,1.433
543.040,1.436
543.311,1.450
543.582,1.464
543.853,1.469
544.124,1.473
544.396,1.476
544.667,1.478
544.938,1.470
545.209,1.445
545.480,1.426
545.752,1.413
546.023,1.425
546.294,1.424
546.566,1.417
546.837,1.405
547.109,1.402
547.380,1.405
547.652,1.404
547.923,1.407
548.195,1.416
548.466,1.428
548.738,1.431
549.009,1.419
549.281,1.406
549.553,1.393
549.824,1.384
550.096,1.382
550.368,1.385
550.640,1.388
550.911,1.388
551.183,1.396
551.455,1.415
551.727,1.431
551.999,1.432
552.271,1.423
552.543,1.413
552.815,1.409
553.087,1.413
553.359,1.419
553.631,1.422
553.903,1.420
554.175,1.422
554.447,1.426
554.719,1.428
554.991,1.427
555.263,1.424
555.535,1.413
555.808,1.399
556.080,1.386
556.352,1.385
556.624,1.392
556.897,1.399
557.169,1.405
557.441,1.405
557.714,1.399
557.986,1.390
558.258,1.384
558.531,1.389
558.803,1.392
559.076,1.394
559.348,1.387
559.621,1.382
559.893,1.384
560.166,1.389
560.438,1.393
560.711,1.392
560.983,1.394
561.256,1.396
561.528,1.400
561.801,1.404
562.074,1.410
562.346,1.418
562.619,1.424
562.892,1.424
563.164,1.421
563.437,1.416
563.710,1.412
563.983,1.400
564.255,1.388
564.528,1.388
564.801,1.397
565.074,1.403
565.346,1.397
565.619,1.391
565.892,1.394
566.165,1.396
566.438,1.388
566.711,1.379
566.984,1.376
567.257,1.379
567.529,1.383
567.802,1.393
568.075,1.402
568.348,1.402
568.621,1.393
568.894,1.382
569.167,1.382
569.440,1.385
569.713,1.385
569.986,1.382
570.259,1.378
570.532,1.382
570.805,1.382
571.078,1.382
571.351,1.388
571.625,1.395
571.898,1.396
572.171,1.382
572.444,1.368
572.717,1.362
572.990,1.366
573.263,1.370
573.536,1.368
573.809,1.359
574.083,1.354
574.356,1.356
574.629,1.370
574.902,1.379
575.175,1.381
575.448,1.371
575.721,1.364
575.995,1.361
576.268,1.362
576.541,1.368
576.814,1.376
577.087,1.385
577.361,1.386
577.634,1.382
577.907,1.370
578.180,1.362
578.453,1.359
578.727,1.365
579.000,1.371
579.273,1.378
579.546,1.390
579.820,1.405
580.093,1.410
580.366,1.400
580.639,1.383
580.913,1.373
581.186,1.367
581.459,1.365
581.732,1.361
582.005,1.359
582.279,1.352
582.552,1.352
582.825,1.353
583.098,1.359
583.372,1.361
583.645,1.365
583.918,1.371
584.191,1.379
584.464,1.381
584.738,1.381
585.011,1.379
585.284,1.378
585.557,1.376
585.831,1.377
586.104,1.384
586.377,1.396
586.650,1.403
586.923,1.405
587.196,1.397
587.470,1.384
587.743,1.372
588.016,1.368
588.289,1.370
588.562,1.377
588.835,1.378
589.109,1.374
589.382,1.365
589.655,1.355
589.928,1.346
590.201,1.345
590.474,1.360
590.747,1.382
591.020,1.399
591.293,1.399
591.567,1.391
591.840,1.377
592.113,1.366
592.386,1.354
592.659,1.346
592.932,1.347
593.205,1.356
593.478,1.366
593.751,1.363
594.024,1.354
594.297,1.342
594.570,1.338
594.843,1.343
595.116,1.352
595.389,1.357
595.662,1.358
595.934,1.362
596.207,1.372
596.480,1.382
596.753,1.389
597.026,1.388
597.299,1.380
597.572,1.372
597.844,1.368
598.117,1.366
598.390,1.361
598.663,1.359
598.936,1.362
599.208,1.373
599.481,1.384
599.754,1.386
600.026,1.376
600.299,1.358
600.572,1.343
600.844,1.335
601.117,1.333
601.390,1.335
601.662,1.336
601.935,1.334
602.207,1.335
602.480,1.342
602.752,1.344
603.025,1.339
603.297,1.336
603.570,1.342
603.842,1.351
604.115,1.360
604.387,1.363
604.660,1.359
604.932,1.356
605.204,1.358
605.477,1.368
605.749,1.381
606.021,1.392
606.294,1.395
606.566,1.385
606.838,1.378
607.110,1.377
607.383,1.384
607.655,1.386
607.927,1.390
608.199,1.394
608.471,1.401
608.743,1.399
609.015,1.396
609.287,1.390
609.559,1.388
609.831,1.389
610.103,1.390
610.375,1.387
610.647,1.382
610.919,1.375
611.191,1.372
611.463,1.370
611.735,1.371
612.007,1.366
612.278,1.362
612.550,1.357
612.822,1.358
613.094,1.360
613.365,1.365
613.637,1.371
613.909,1.371
614.180,1.368
614.452,1.363
614.723,1.361
614.995,1.358
615.266,1.359
615.538,1.367
615.809,1.372
616.081,1.365
616.352,1.351
616.623,1.341
616.895,1.341
617.166,1.339
617.437,1.340
617.709,1.343
617.980,1.355
618.251,1.369
618.522,1.382
618.793,1.396
619.065,1.406
619.336,1.400
619.607,1.382
619.878,1.369
620.149,1.373
620.420,1.379
620.691,1.374
620.962,1.368
621.232,1.367
621.503,1.365
621.774,1.363
622.045,1.360
622.316,1.361
622.586,1.368
622.857,1.380
623.128,1.388
623.398,1.385
623.669,1.373
623.940,1.362
624.210,1.355
624.481,1.357
624.751,1.358
625.021,1.353
625.292,1.342
625.562,1.340
625.833,1.343
626.103,1.342
626.373,1.340
626.643,1.341
626.914,1.348
627.184,1.357
627.454,1.359
627.724,1.355
627.994,1.351
628.264,1.352
628.534,1.350
628.804,1.345
629.074,1.349
629.344,1.359
629.614,1.366
629.884,1.362
630.154,1.348
630.424,1.330
630.693,1.312
630.963,1.298
631.233,1.291
631.502,1.295
631.772,1.314
632.041,1.335
632.311,1.344
632.581,1.342
632.850,1.335
633.119,1.327
633.389,1.318
633.658,1.317
633.928,1.326
634.197,1.339
634.466,1.350
634.735,1.359
635.004,1.362
635.274,1.362
635.543,1.359
635.812,1.357
636.081,1.353
636.350,1.352
636.619,1.349
636.888,1.345
637.157,1.342
637.426,1.348
637.694,1.351
637.963,1.350
638.232,1.342
638.501,1.337
638.769,1.337
639.038,1.344
639.307,1.358
639.575,1.370
639.844,1.369
640.112,1.359
640.381,1.343
640.649,1.338
640.917,1.337
641.186,1.343
641.454,1.349
641.722,1.350
641.991,1.345
642.259,1.333
642.527,1.328
642.795,1.331
643.063,1.332
643.331,1.331
643.599,1.328
643.867,1.333
644.135,1.336
644.403,1.338
644.671,1.339
644.939,1.345
645.206,1.350
645.474,1.353
645.742,1.348
646.009,1.336
646.277,1.326
646.545,1.325
646.812,1.341
647.080,1.359
647.347,1.371
647.615,1.365
647.882,1.346
648.149,1.329
648.417,1.325
648.684,1.330
648.951,1.341
649.219,1.351
649.486,1.354
649.753,1.351
650.020,1.340
650.287,1.333
650.554,1.328
650.821,1.328
651.088,1.329
651.355,1.336
651.622,1.339
651.889,1.343
652.155,1.339
652.422,1.339
652.689,1.343
652.956,1.349
653.222,1.356
653.489,1.369
653.755,1.374
654.022,1.367
654.288,1.348
654.555,1.341
654.821,1.344
655.088,1.353
655.354,1.356
655.620,1.364
655.887,1.369
656.153,1.373
656.419,1.369
656.685,1.359
656.951,1.351
657.217,1.343
657.483,1.336
657.749,1.328
658.015,1.326
658.281,1.322
658.547,1.317
658.813,1.310
659.079,1.305
659.345,1.302
659.610,1.303
659.876,1.308
660.142,1.315
660.407,1.325
660.673,1.336
660.939,1.347
661.204,1.348
661.470,1.342
661.735,1.336
662.000,1.333
662.266,1.328
662.531,1.324
662.796,1.322
663.062,1.323
663.327,1.322
663.592,1.323
663.857,1.325
664.122,1.322
664.388,1.319
664.653,1.322
664.918,1.330
665.183,1.329
665.448,1.325
665.712,1.325
665.977,1.334
666.242,1.336
666.507,1.326
666.772,1.316
667.037,1.311
667.301,1.315
667.566,1.316
667.831,1.321
668.095,1.327
668.360,1.332
668.624,1.333
668.889,1.336
669.153,1.334
669.418,1.334
669.682,1.330
669.946,1.330
670.211,1.336
670.475,1.344
670.739,1.352
671.004,1.358
671.268,1.376
671.532,1.393
671.796,1.392
672.060,1.378
672.324,1.365
672.588,1.367
672.852,1.374
673.116,1.402
673.380,1.426
673.644,1.411
673.908,1.368
674.172,1.331
674.436,1.329
674.700,1.336
674.963,1.340
675.227,1.342
675.491,1.336
675.754,1.331
676.018,1.328
676.282,1.332
676.545,1.333
676.809,1.327
677.072,1.317
677.336,1.311
677.599,1.314
677.863,1.317
678.126,1.325
678.389,1.333
678.653,1.344
678.916,1.345
679.179,1.341
679.442,1.341
679.706,1.350
679.969,1.353
680.232,1.352
680.495,1.353
680.758,1.359
681.021,1.359
681.284,1.344
681.547,1.331
681.810,1.333
682.073,1.348
682.336,1.353
682.599,1.348
682.862,1.340
683.125,1.341
683.388,1.342
683.651,1.339
683.913,1.337
684.176,1.335
684.439,1.332
684.702,1.325
684.964,1.314
685.227,1.311
685.490,1.317
685.752,1.335
686.015,1.342
686.277,1.343
686.540,1.336
686.802,1.334
687.065,1.332
687.327,1.333
687.590,1.331
687.852,1.323
688.115,1.312
688.377,1.302
688.639,1.297
688.902,1.301
689.164,1.312
689.426,1.331
689.689,1.340
689.951,1.338
690.213,1.331
690.475,1.329
690.737,1.332
691.000,1.331
691.262,1.325
691.524,1.325
691.786,1.334
692.048,1.346
692.310,1.344
692.572,1.331
692.834,1.314
693.096,1.309
693.358,1.314
693.620,1.325
693.882,1.337
694.144,1.343
694.406,1.338
694.668,1.330
694.930,1.322
695.192,1.324
695.453,1.327
695.715,1.327
695.977,1.323
696.239,1.319
696.501,1.322
696.762,1.331
697.024,1.335
697.286,1.331
697.548,1.327
697.809,1.328
698.071,1.328
698.333,1.324
698.594,1.321
698.856,1.327
699.118,1.333
699.379,1.336
699.641,1.340
699.902,1.347
700.164,1.351
700.426,1.348
700.687,1.341
700.949,1.333
701.210,1.327
701.472,1.317
701.733,1.310
701.995,1.311
702.256,1.316
702.518,1.321
702.779,1.319
703.041,1.328
703.302,1.339
703.563,1.343
703.825,1.335
704.086,1.328
704.348,1.328
704.609,1.326
704.871,1.330
705.132,1.333
705.393,1.333
705.655,1.333
705.916,1.334
706.177,1.335
706.439,1.333
706.700,1.333
706.961,1.331
707.223,1.323
707.484,1.305
707.745,1.291
708.007,1.277
708.268,1.268
708.529,1.257
708.790,1.246
709.052,1.245
709.313,1.249
709.574,1.257
709.835,1.259
710.097,1.254
710.358,1.244
710.619,1.231
710.881,1.220
711.142,1.210
711.403,1.200
711.664,1.196
711.926,1.195
712.187,1.202
712.448,1.210
712.709,1.218
712.970,1.223
713.232,1.222
713.493,1.223
713.754,1.223
714.015,1.228
714.277,1.232
714.538,1.242
714.799,1.251
715.060,1.257
715.322,1.255
715.583,1.248
715.844,1.240
716.105,1.232
716.367,1.228
716.628,1.227
716.889,1.228
717.150,1.227
717.411,1.224
717.673,1.226
717.934,1.233
718.195,1.237
718.457,1.229
718.718,1.214
718.979,1.206
719.240,1.211
719.502,1.225
719.763,1.234
720.024,1.231
720.286,1.225
720.547,1.219
720.808,1.218
721.069,1.218
721.331,1.222
721.592,1.231
721.853,1.238
722.115,1.240
722.376,1.236
722.638,1.227
722.899,1.222
723.160,1.215
723.422,1.211
723.683,1.210
723.944,1.215
724.206,1.214
724.467,1.211
724.729,1.210
724.990,1.220
725.252,1.229
725.513,1.225
725.775,1.217
726.036,1.210
726.298,1.209
726.559,1.211
726.821,1.208
727.082,1.208
727.344,1.211
727.605,1.219
727.867,1.222
728.128,1.225
728.390,1.228
728.652,1.233
728.913,1.237
729.175,1.242
729.436,1.245
729.698,1.248
729.960,1.245
730.221,1.237
730.483,1.224
730.745,1.217
731.007,1.214
731.268,1.215
731.530,1.217
731.792,1.219
732.054,1.222
732.315,1.225
732.577,1.228
732.839,1.226
733.101,1.222
733.363,1.216
733.625,1.215
733.887,1.221
734.149,1.229
734.411,1.236
734.673,1.237
734.935,1.235
735.197,1.231
735.459,1.234
735.721,1.238
735.983,1.233
736.245,1.217
736.507,1.208
736.769,1.211
737.031,1.220
737.293,1.220
737.555,1.217
737.818,1.210
738.080,1.204
738.342,1.198
738.604,1.194
738.867,1.192
739.129,1.189
739.391,1.189
739.654,1.190
739.916,1.192
740.178,1.197
740.441,1.205
740.703,1.209
740.966,1.206
741.228,1.203
741.491,1.203
741.753,1.211
742.016,1.214
742.278,1.220
742.541,1.219
742.804,1.217
743.066,1.219
743.329,1.219
743.592,1.216
743.854,1.214
744.117,1.217
744.380,1.224
744.643,1.225
744.905,1.222
745.168,1.221
745.431,1.217
745.694,1.211
745.957,1.207
746.220,1.204
746.483,1.201
746.746,1.202
747.009,1.213
747.272,1.230
