Wavelength (nm),Intensity Source #126,,C:/Users/Brend/Desktop/LED Spectras v2/Spectrometer Data.sp,,,Source #126,
379.792,1.928,,2018-06-14 11:05:49,,Integration Time,132 ms,
380.000,1.925,,Analyze Light,,Number of Scans to Average,25,
380.209,1.922,,,,Smoothing,1,
380.418,1.931
380.627,1.945
380.837,1.957
381.048,1.962
381.259,1.962
381.471,1.962
381.683,1.967
381.896,1.979
382.110,1.989
382.324,2.004
382.538,2.017
382.753,2.030
382.969,2.027
383.185,2.024
383.402,2.024
383.619,2.032
383.837,2.042
384.055,2.057
384.274,2.071
384.493,2.080
384.712,2.084
384.932,2.092
385.153,2.104
385.374,2.116
385.596,2.126
385.818,2.142
386.040,2.157
386.263,2.169
386.487,2.173
386.710,2.171
386.935,2.160
387.159,2.154
387.385,2.148
387.610,2.149
387.836,2.153
388.063,2.163
388.289,2.175
388.517,2.185
388.744,2.189
388.972,2.199
389.201,2.206
389.430,2.218
389.659,2.223
389.889,2.234
390.119,2.244
390.349,2.255
390.580,2.264
390.811,2.268
391.042,2.273
391.274,2.279
391.507,2.287
391.739,2.287
391.972,2.280
392.205,2.281
392.439,2.295
392.673,2.315
392.907,2.334
393.142,2.352
393.377,2.366
393.612,2.376
393.848,2.379
394.084,2.386
394.320,2.389
394.557,2.401
394.794,2.410
395.031,2.422
395.269,2.428
395.507,2.437
395.745,2.442
395.983,2.452
396.222,2.460
396.461,2.479
396.700,2.495
396.940,2.506
397.180,2.509
397.420,2.506
397.660,2.506
397.901,2.508
398.142,2.512
398.383,2.512
398.625,2.507
398.866,2.511
399.108,2.532
399.351,2.567
399.593,2.584
399.836,2.588
400.079,2.575
400.322,2.570
400.566,2.562
400.809,2.562
401.053,2.569
401.298,2.579
401.542,2.589
401.787,2.604
402.031,2.619
402.277,2.633
402.522,2.638
402.767,2.645
403.013,2.644
403.259,2.647
403.505,2.646
403.752,2.650
403.998,2.654
404.245,2.673
404.492,2.694
404.739,2.709
404.986,2.713
405.234,2.717
405.482,2.720
405.730,2.721
405.978,2.724
406.226,2.728
406.475,2.728
406.723,2.732
406.972,2.743
407.221,2.764
407.470,2.775
407.720,2.784
407.969,2.780
408.219,2.788
408.469,2.796
408.719,2.813
408.969,2.826
409.219,2.841
409.470,2.849
409.720,2.856
409.971,2.861
410.222,2.873
410.473,2.879
410.724,2.883
410.976,2.887
411.227,2.898
411.479,2.905
411.731,2.910
411.983,2.906
412.235,2.909
412.487,2.907
412.740,2.920
412.992,2.931
413.245,2.946
413.497,2.945
413.750,2.944
414.003,2.938
414.257,2.938
414.510,2.938
414.763,2.946
415.017,2.952
415.270,2.958
415.524,2.954
415.778,2.953
416.032,2.955
416.286,2.972
416.540,2.985
416.794,2.997
417.049,2.998
417.303,3.004
417.558,3.007
417.812,3.010
418.067,3.008
418.322,3.008
418.577,2.999
418.832,2.994
419.088,2.982
419.343,2.985
419.598,2.977
419.854,2.980
420.109,2.981
420.365,2.998
420.621,3.009
420.876,3.020
421.132,3.023
421.388,3.023
421.645,3.018
421.901,3.020
422.157,3.031
422.413,3.047
422.670,3.052
422.926,3.059
423.183,3.057
423.439,3.073
423.696,3.085
423.953,3.121
424.210,3.152
424.467,3.178
424.724,3.186
424.981,3.183
425.238,3.191
425.495,3.217
425.753,3.253
426.010,3.288
426.267,3.311
426.525,3.350
426.782,3.390
427.040,3.441
427.298,3.488
427.555,3.550
427.813,3.608
428.071,3.672
428.329,3.728
428.587,3.785
428.845,3.842
429.103,3.907
429.361,3.975
429.619,4.051
429.878,4.135
430.136,4.232
430.394,4.323
430.653,4.436
430.911,4.562
431.170,4.699
431.428,4.819
431.687,4.941
431.946,5.067
432.204,5.208
432.463,5.352
432.722,5.511
432.981,5.676
433.240,5.861
433.499,6.052
433.758,6.255
434.017,6.449
434.276,6.654
434.535,6.860
434.794,7.085
435.053,7.311
435.312,7.554
435.572,7.801
435.831,8.072
436.090,8.348
436.350,8.644
436.609,8.951
436.869,9.277
437.128,9.609
437.388,9.944
437.647,10.285
437.907,10.659
438.166,11.045
438.426,11.444
438.686,11.845
438.946,12.274
439.205,12.725
439.465,13.193
439.725,13.677
439.985,14.185
440.245,14.707
440.505,15.250
440.765,15.800
441.025,16.366
441.285,16.947
441.545,17.559
441.805,18.205
442.065,18.882
442.325,19.584
442.585,20.325
442.846,21.109
443.106,21.950
443.366,22.823
443.626,23.725
443.887,24.650
444.147,25.626
444.407,26.652
444.668,27.726
444.928,28.835
445.189,29.997
445.449,31.226
445.710,32.518
445.970,33.871
446.231,35.290
446.491,36.787
446.752,38.359
447.012,39.978
447.273,41.642
447.534,43.330
447.794,45.069
448.055,46.867
448.316,48.764
448.577,50.739
448.837,52.774
449.098,54.854
449.359,56.960
449.620,59.078
449.881,61.200
450.142,63.334
450.403,65.505
450.664,67.705
450.924,69.916
451.185,72.108
451.446,74.281
451.707,76.424
451.969,78.506
452.230,80.474
452.491,82.279
452.752,83.859
453.013,85.198
453.274,86.320
453.535,87.272
453.796,88.083
454.058,88.771
454.319,89.371
454.580,89.885
454.841,90.316
455.103,90.649
455.364,90.896
455.625,91.079
455.887,91.205
456.148,91.283
456.409,91.295
456.671,91.248
456.932,91.138
457.194,90.967
457.455,90.742
457.716,90.451
457.978,90.094
458.239,89.677
458.501,89.207
458.763,88.668
459.024,88.047
459.286,87.321
459.547,86.478
459.809,85.455
460.071,84.231
460.332,82.814
460.594,81.256
460.856,79.616
461.117,77.919
461.379,76.209
461.641,74.510
461.903,72.828
462.164,71.165
462.426,69.512
462.688,67.896
462.950,66.314
463.212,64.778
463.474,63.268
463.736,61.789
463.998,60.375
464.260,59.039
464.522,57.780
464.784,56.574
465.046,55.420
465.308,54.338
465.570,53.318
465.832,52.354
466.094,51.437
466.356,50.537
466.618,49.646
466.880,48.758
467.142,47.889
467.405,47.070
467.667,46.290
467.929,45.544
468.191,44.807
468.454,44.069
468.716,43.329
468.978,42.570
469.241,41.809
469.503,41.063
469.765,40.339
470.028,39.627
470.290,38.903
470.552,38.183
470.815,37.455
471.077,36.726
471.340,36.000
471.602,35.275
471.865,34.559
472.128,33.847
472.390,33.146
472.653,32.438
472.915,31.726
473.178,30.998
473.441,30.273
473.703,29.525
473.966,28.786
474.229,28.040
474.492,27.318
474.755,26.601
475.017,25.916
475.280,25.246
475.543,24.596
475.806,23.950
476.069,23.298
476.332,22.653
476.595,22.017
476.858,21.396
477.121,20.788
477.384,20.201
477.647,19.660
477.910,19.151
478.173,18.655
478.436,18.150
478.699,17.664
478.962,17.197
479.226,16.771
479.489,16.350
479.752,15.943
480.015,15.532
480.279,15.139
480.542,14.757
480.805,14.392
481.069,14.028
481.332,13.683
481.595,13.353
481.859,13.052
482.122,12.750
482.386,12.447
482.649,12.141
482.913,11.858
483.177,11.576
483.440,11.297
483.704,11.013
483.967,10.757
484.231,10.520
484.495,10.297
484.759,10.074
485.022,9.848
485.286,9.619
485.550,9.395
485.814,9.157
486.078,8.930
486.342,8.705
486.606,8.514
486.869,8.323
487.133,8.141
487.397,7.951
487.662,7.762
487.926,7.569
488.190,7.380
488.454,7.190
488.718,7.010
488.982,6.822
489.246,6.654
489.511,6.477
489.775,6.313
490.039,6.141
490.304,5.983
490.568,5.812
490.832,5.655
491.097,5.500
491.361,5.368
491.626,5.231
491.890,5.102
492.155,4.968
492.419,4.845
492.684,4.706
492.949,4.569
493.213,4.433
493.478,4.326
493.743,4.216
494.008,4.102
494.272,3.981
494.537,3.884
494.802,3.798
495.067,3.725
495.332,3.642
495.597,3.566
495.862,3.479
496.127,3.406
496.392,3.325
496.657,3.245
496.922,3.163
497.187,3.094
497.452,3.036
497.718,2.992
497.983,2.943
498.248,2.895
498.513,2.838
498.779,2.794
499.044,2.753
499.310,2.710
499.575,2.652
499.841,2.603
500.106,2.561
500.372,2.525
500.637,2.490
500.903,2.466
501.168,2.440
501.434,2.409
501.700,2.369
501.966,2.338
502.231,2.308
502.497,2.280
502.763,2.245
503.029,2.213
503.295,2.182
503.561,2.158
503.827,2.138
504.093,2.121
504.359,2.104
504.625,2.087
504.891,2.065
505.157,2.046
505.423,2.019
505.690,1.989
505.956,1.959
506.222,1.946
506.489,1.950
506.755,1.955
507.021,1.953
507.288,1.945
507.554,1.931
507.821,1.919
508.087,1.903
508.354,1.899
508.621,1.891
508.887,1.876
509.154,1.856
509.421,1.844
509.687,1.834
509.954,1.820
510.221,1.804
510.488,1.797
510.755,1.798
511.022,1.797
511.289,1.785
511.556,1.767
511.823,1.753
512.090,1.753
512.357,1.750
512.624,1.746
512.891,1.733
513.159,1.723
513.426,1.712
513.693,1.702
513.960,1.696
514.228,1.695
514.495,1.693
514.763,1.687
515.030,1.677
515.298,1.664
515.565,1.660
515.833,1.658
516.100,1.657
516.368,1.654
516.636,1.651
516.904,1.654
517.171,1.648
517.439,1.639
517.707,1.625
517.975,1.620
518.243,1.620
518.511,1.619
518.779,1.609
519.047,1.605
519.315,1.602
519.583,1.601
519.851,1.591
520.119,1.584
520.387,1.580
520.656,1.580
520.924,1.579
521.192,1.578
521.461,1.577
521.729,1.579
521.997,1.583
522.266,1.588
522.534,1.586
522.803,1.582
523.071,1.573
523.340,1.560
523.609,1.546
523.877,1.538
524.146,1.538
524.415,1.544
524.684,1.549
524.952,1.545
525.221,1.540
525.490,1.545
525.759,1.554
526.028,1.553
526.297,1.536
526.566,1.521
526.835,1.509
527.104,1.509
527.373,1.511
527.642,1.515
527.912,1.510
528.181,1.505
528.450,1.503
528.719,1.509
528.989,1.522
529.258,1.532
529.528,1.534
529.797,1.525
530.067,1.519
530.336,1.513
530.606,1.505
530.875,1.493
531.145,1.485
531.414,1.486
531.684,1.493
531.954,1.496
532.224,1.493
532.493,1.479
532.763,1.468
533.033,1.467
533.303,1.476
533.573,1.485
533.843,1.481
534.113,1.475
534.383,1.464
534.653,1.463
534.923,1.465
535.193,1.472
535.463,1.483
535.733,1.491
536.004,1.498
536.274,1.497
536.544,1.488
536.814,1.474
537.085,1.464
537.355,1.472
537.626,1.492
537.896,1.505
538.166,1.502
538.437,1.493
538.707,1.486
538.978,1.487
539.249,1.499
539.519,1.502
539.790,1.497
540.061,1.490
540.331,1.497
540.602,1.512
540.873,1.521
541.144,1.527
541.414,1.528
541.685,1.526
541.956,1.519
542.227,1.509
542.498,1.499
542.769,1.492
543.040,1.495
543.311,1.512
543.582,1.528
543.853,1.536
544.124,1.539
544.396,1.543
544.667,1.546
544.938,1.541
545.209,1.517
545.480,1.501
545.752,1.490
546.023,1.497
546.294,1.490
546.566,1.482
546.837,1.468
547.109,1.463
547.380,1.458
547.652,1.457
547.923,1.458
548.195,1.466
548.466,1.479
548.738,1.491
549.009,1.490
549.281,1.480
549.553,1.463
549.824,1.446
550.096,1.436
550.368,1.436
550.640,1.443
550.911,1.452
551.183,1.467
551.455,1.486
551.727,1.500
551.999,1.497
552.271,1.482
552.543,1.465
552.815,1.454
553.087,1.457
553.359,1.466
553.631,1.471
553.903,1.472
554.175,1.475
554.447,1.480
554.719,1.477
554.991,1.469
555.263,1.461
555.535,1.456
555.808,1.450
556.080,1.443
556.352,1.439
556.624,1.435
556.897,1.434
557.169,1.434
557.441,1.433
557.714,1.428
557.986,1.425
558.258,1.425
558.531,1.433
558.803,1.439
559.076,1.446
559.348,1.446
559.621,1.441
559.893,1.438
560.166,1.439
560.438,1.440
560.711,1.438
560.983,1.436
561.256,1.436
561.528,1.440
561.801,1.448
562.074,1.454
562.346,1.461
562.619,1.467
562.892,1.467
563.164,1.462
563.437,1.457
563.710,1.452
563.983,1.446
564.255,1.436
564.528,1.439
564.801,1.449
565.074,1.458
565.346,1.454
565.619,1.451
565.892,1.451
566.165,1.447
566.438,1.435
566.711,1.424
566.984,1.421
567.257,1.422
567.529,1.430
567.802,1.446
568.075,1.460
568.348,1.458
568.621,1.449
568.894,1.440
569.167,1.440
569.440,1.438
569.713,1.430
569.986,1.424
570.259,1.417
570.532,1.425
570.805,1.435
571.078,1.446
571.351,1.452
571.625,1.453
571.898,1.444
572.171,1.429
572.444,1.415
572.717,1.413
572.990,1.419
573.263,1.420
573.536,1.416
573.809,1.407
574.083,1.406
574.356,1.414
574.629,1.428
574.902,1.436
575.175,1.435
575.448,1.426
575.721,1.423
575.995,1.424
576.268,1.425
576.541,1.427
576.814,1.431
577.087,1.437
577.361,1.440
577.634,1.438
577.907,1.428
578.180,1.415
578.453,1.409
578.727,1.413
579.000,1.418
579.273,1.424
579.546,1.434
579.820,1.447
580.093,1.451
580.366,1.442
580.639,1.426
580.913,1.416
581.186,1.410
581.459,1.410
581.732,1.407
582.005,1.407
582.279,1.404
582.552,1.407
582.825,1.410
583.098,1.414
583.372,1.419
583.645,1.424
583.918,1.425
584.191,1.423
584.464,1.420
584.738,1.420
585.011,1.419
585.284,1.415
585.557,1.413
585.831,1.418
586.104,1.434
586.377,1.454
586.650,1.466
586.923,1.464
587.196,1.452
587.470,1.439
587.743,1.432
588.016,1.427
588.289,1.426
588.562,1.431
588.835,1.430
589.109,1.423
589.382,1.410
589.655,1.403
589.928,1.403
590.201,1.404
590.474,1.412
590.747,1.422
591.020,1.433
591.293,1.436
591.567,1.434
591.840,1.428
592.113,1.422
592.386,1.412
592.659,1.406
592.932,1.405
593.205,1.409
593.478,1.411
593.751,1.409
594.024,1.404
594.297,1.398
594.570,1.396
594.843,1.401
595.116,1.411
595.389,1.415
595.662,1.411
595.934,1.410
596.207,1.412
596.480,1.419
596.753,1.423
597.026,1.424
597.299,1.422
597.572,1.423
597.844,1.424
598.117,1.419
598.390,1.411
598.663,1.405
598.936,1.406
599.208,1.406
599.481,1.408
599.754,1.408
600.026,1.401
600.299,1.395
600.572,1.394
600.844,1.400
601.117,1.397
601.390,1.391
601.662,1.385
601.935,1.382
602.207,1.380
602.480,1.383
602.752,1.388
603.025,1.388
603.297,1.389
603.570,1.398
603.842,1.416
604.115,1.427
604.387,1.431
604.660,1.424
604.932,1.417
605.204,1.414
605.477,1.417
605.749,1.425
606.021,1.434
606.294,1.439
606.566,1.432
606.838,1.428
607.110,1.431
607.383,1.441
607.655,1.450
607.927,1.454
608.199,1.459
608.471,1.459
608.743,1.454
609.015,1.447
609.287,1.441
609.559,1.440
609.831,1.441
610.103,1.442
610.375,1.439
610.647,1.432
610.919,1.423
611.191,1.420
611.463,1.420
611.735,1.419
612.007,1.413
612.278,1.410
612.550,1.409
612.822,1.416
613.094,1.420
613.365,1.421
613.637,1.424
613.909,1.426
614.180,1.427
614.452,1.419
614.723,1.410
614.995,1.402
615.266,1.403
615.538,1.413
615.809,1.424
616.081,1.422
616.352,1.410
616.623,1.401
616.895,1.397
617.166,1.394
617.437,1.391
617.709,1.394
617.980,1.399
618.251,1.404
618.522,1.412
618.793,1.427
619.065,1.447
619.336,1.449
619.607,1.441
619.878,1.433
620.149,1.434
620.420,1.432
620.691,1.424
620.962,1.420
621.232,1.424
621.503,1.422
621.774,1.417
622.045,1.413
622.316,1.423
622.586,1.436
622.857,1.445
623.128,1.444
623.398,1.439
623.669,1.431
623.940,1.421
624.210,1.409
624.481,1.408
624.751,1.408
625.021,1.407
625.292,1.399
625.562,1.396
625.833,1.395
626.103,1.395
626.373,1.395
626.643,1.400
626.914,1.407
627.184,1.414
627.454,1.412
627.724,1.409
627.994,1.406
628.264,1.406
628.534,1.404
628.804,1.402
629.074,1.407
629.344,1.415
629.614,1.417
629.884,1.408
630.154,1.394
630.424,1.381
630.693,1.369
630.963,1.358
631.233,1.351
631.502,1.354
631.772,1.364
632.041,1.375
632.311,1.381
632.581,1.384
632.850,1.383
633.119,1.374
633.389,1.364
633.658,1.361
633.928,1.371
634.197,1.385
634.466,1.398
634.735,1.404
635.004,1.398
635.274,1.392
635.543,1.386
635.812,1.388
636.081,1.388
636.350,1.388
636.619,1.389
636.888,1.389
637.157,1.391
637.426,1.396
637.694,1.399
637.963,1.394
638.232,1.386
638.501,1.382
638.769,1.391
639.038,1.403
639.307,1.414
639.575,1.418
639.844,1.411
640.112,1.400
640.381,1.387
640.649,1.383
640.917,1.385
641.186,1.391
641.454,1.398
641.722,1.401
641.991,1.402
642.259,1.392
642.527,1.384
642.795,1.380
643.063,1.377
643.331,1.376
643.599,1.378
643.867,1.383
644.135,1.387
644.403,1.389
644.671,1.389
644.939,1.393
645.206,1.396
645.474,1.401
645.742,1.397
646.009,1.385
646.277,1.378
646.545,1.382
646.812,1.398
647.080,1.411
647.347,1.413
647.615,1.404
647.882,1.388
648.149,1.373
648.417,1.367
648.684,1.373
648.951,1.391
649.219,1.404
649.486,1.406
649.753,1.395
650.020,1.383
650.287,1.377
650.554,1.375
650.821,1.374
651.088,1.375
651.355,1.384
651.622,1.391
651.889,1.393
652.155,1.382
652.422,1.378
652.689,1.380
652.956,1.387
653.222,1.396
653.489,1.413
653.755,1.424
654.022,1.418
654.288,1.400
654.555,1.390
654.821,1.392
655.088,1.401
655.354,1.407
655.620,1.412
655.887,1.413
656.153,1.415
656.419,1.413
656.685,1.407
656.951,1.402
657.217,1.397
657.483,1.394
657.749,1.391
658.015,1.390
658.281,1.390
658.547,1.384
658.813,1.377
659.079,1.371
659.345,1.370
659.610,1.373
659.876,1.376
660.142,1.375
660.407,1.376
660.673,1.380
660.939,1.386
661.204,1.386
661.470,1.382
661.735,1.379
662.000,1.384
662.266,1.385
662.531,1.383
662.796,1.380
663.062,1.378
663.327,1.372
663.592,1.370
663.857,1.371
664.122,1.375
664.388,1.374
664.653,1.377
664.918,1.385
665.183,1.393
665.448,1.400
665.712,1.406
665.977,1.413
666.242,1.410
666.507,1.391
666.772,1.370
667.037,1.359
667.301,1.362
667.566,1.368
667.831,1.373
668.095,1.377
668.360,1.381
668.624,1.380
668.889,1.380
669.153,1.377
669.418,1.379
669.682,1.380
669.946,1.385
670.211,1.392
670.475,1.397
670.739,1.406
671.004,1.416
671.268,1.439
671.532,1.460
671.796,1.453
672.060,1.435
672.324,1.416
672.588,1.424
672.852,1.436
673.116,1.472
673.380,1.498
673.644,1.479
673.908,1.429
674.172,1.387
674.436,1.388
674.700,1.393
674.963,1.396
675.227,1.396
675.491,1.393
675.754,1.387
676.018,1.381
676.282,1.382
676.545,1.382
676.809,1.377
677.072,1.369
677.336,1.363
677.599,1.362
677.863,1.362
678.126,1.366
678.389,1.377
678.653,1.389
678.916,1.392
679.179,1.384
679.442,1.378
679.706,1.382
679.969,1.386
680.232,1.391
680.495,1.397
680.758,1.404
681.021,1.403
681.284,1.394
681.547,1.385
681.810,1.387
682.073,1.397
682.336,1.405
682.599,1.399
682.862,1.392
683.125,1.390
683.388,1.396
683.651,1.396
683.913,1.391
684.176,1.379
684.439,1.367
684.702,1.359
684.964,1.356
685.227,1.358
685.490,1.370
685.752,1.387
686.015,1.396
686.277,1.393
686.540,1.382
686.802,1.373
687.065,1.372
687.327,1.376
687.590,1.378
687.852,1.376
688.115,1.368
688.377,1.368
688.639,1.369
688.902,1.370
689.164,1.373
689.426,1.381
689.689,1.389
689.951,1.389
690.213,1.388
690.475,1.389
690.737,1.390
691.000,1.386
691.262,1.384
691.524,1.389
691.786,1.401
692.048,1.410
692.310,1.405
692.572,1.390
692.834,1.375
693.096,1.374
693.358,1.382
693.620,1.393
693.882,1.400
694.144,1.401
694.406,1.396
694.668,1.390
694.930,1.381
695.192,1.375
695.453,1.370
695.715,1.369
695.977,1.366
696.239,1.362
696.501,1.365
696.762,1.376
697.024,1.385
697.286,1.383
697.548,1.377
697.809,1.373
698.071,1.370
698.333,1.368
698.594,1.369
698.856,1.376
699.118,1.380
699.379,1.383
699.641,1.389
699.902,1.394
700.164,1.392
700.426,1.384
700.687,1.376
700.949,1.376
701.210,1.380
701.472,1.382
701.733,1.377
701.995,1.373
702.256,1.370
702.518,1.369
702.779,1.368
703.041,1.377
703.302,1.391
703.563,1.393
703.825,1.385
704.086,1.375
704.348,1.370
704.609,1.371
704.871,1.379
705.132,1.392
705.393,1.393
705.655,1.388
705.916,1.384
706.177,1.387
706.439,1.389
706.700,1.386
706.961,1.381
707.223,1.376
707.484,1.362
707.745,1.349
708.007,1.335
708.268,1.326
708.529,1.313
708.790,1.298
709.052,1.292
709.313,1.294
709.574,1.300
709.835,1.303
710.097,1.298
710.358,1.287
710.619,1.276
710.881,1.270
711.142,1.265
711.403,1.259
711.664,1.256
711.926,1.252
712.187,1.256
712.448,1.261
712.709,1.270
712.970,1.277
713.232,1.279
713.493,1.281
713.754,1.281
714.015,1.284
714.277,1.289
714.538,1.297
714.799,1.306
715.060,1.309
715.322,1.308
715.583,1.301
715.844,1.294
716.105,1.284
716.367,1.275
716.628,1.276
716.889,1.277
717.150,1.272
717.411,1.260
717.673,1.257
717.934,1.262
718.195,1.270
718.457,1.268
718.718,1.259
718.979,1.252
719.240,1.253
719.502,1.263
719.763,1.275
720.024,1.283
720.286,1.281
720.547,1.272
720.808,1.265
721.069,1.264
721.331,1.272
721.592,1.284
721.853,1.290
722.115,1.292
722.376,1.288
722.638,1.286
722.899,1.284
723.160,1.278
723.422,1.270
723.683,1.264
723.944,1.267
724.206,1.270
724.467,1.272
724.729,1.275
724.990,1.284
725.252,1.288
725.513,1.281
725.775,1.266
726.036,1.255
726.298,1.251
726.559,1.256
726.821,1.257
727.082,1.257
727.344,1.255
727.605,1.254
727.867,1.254
728.128,1.258
728.390,1.260
728.652,1.269
728.913,1.279
729.175,1.285
729.436,1.286
729.698,1.284
729.960,1.281
730.221,1.275
730.483,1.265
730.745,1.260
731.007,1.260
731.268,1.265
731.530,1.268
731.792,1.268
732.054,1.272
732.315,1.277
732.577,1.281
732.839,1.274
733.101,1.264
733.363,1.257
733.625,1.259
733.887,1.265
734.149,1.269
734.411,1.274
734.673,1.278
734.935,1.279
735.197,1.277
735.459,1.280
735.721,1.285
735.983,1.284
736.245,1.271
736.507,1.264
736.769,1.266
737.031,1.274
737.293,1.270
737.555,1.263
737.818,1.251
738.080,1.247
738.342,1.245
738.604,1.247
738.867,1.250
739.129,1.253
739.391,1.254
739.654,1.252
739.916,1.251
740.178,1.256
740.441,1.266
740.703,1.268
740.966,1.264
741.228,1.258
741.491,1.257
741.753,1.261
742.016,1.262
742.278,1.261
742.541,1.261
742.804,1.263
743.066,1.270
743.329,1.273
743.592,1.271
743.854,1.268
744.117,1.269
744.380,1.273
744.643,1.272
744.905,1.266
745.168,1.260
745.431,1.256
745.694,1.252
745.957,1.249
746.220,1.248
746.483,1.248
746.746,1.248
747.009,1.259
