Wavelength (nm),Intensity Source #36,,C:/Users/Brend/Desktop/MÃ s LED Spectras/Spectrometer Data.sp,,,Source #36,
379.792,2.206,,2018-06-13 14:07:20,,Integration Time,960 ms,
380.000,2.165,,Analyze Light,,Number of Scans to Average,25,
380.209,2.114,,,,Smoothing,1,
380.418,2.156
380.627,2.226
380.837,2.295
381.048,2.307
381.259,2.290
381.471,2.263
381.683,2.264
381.896,2.286
382.110,2.282
382.324,2.303
382.538,2.361
382.753,2.408
382.969,2.343
383.185,2.232
383.402,2.146
383.619,2.163
383.837,2.220
384.055,2.310
384.274,2.382
384.493,2.397
384.712,2.371
384.932,2.342
385.153,2.332
385.374,2.324
385.596,2.323
385.818,2.378
386.040,2.450
386.263,2.503
386.487,2.481
386.710,2.421
386.935,2.326
387.159,2.266
387.385,2.215
387.610,2.192
387.836,2.181
388.063,2.190
388.289,2.209
388.517,2.210
388.744,2.188
388.972,2.212
389.201,2.231
389.430,2.253
389.659,2.239
389.889,2.244
390.119,2.257
390.349,2.264
390.580,2.277
390.811,2.271
391.042,2.263
391.274,2.258
391.507,2.259
391.739,2.228
391.972,2.178
392.205,2.169
392.439,2.210
392.673,2.241
392.907,2.253
393.142,2.267
393.377,2.292
393.612,2.318
393.848,2.308
394.084,2.295
394.320,2.264
394.557,2.273
394.794,2.279
395.031,2.315
395.269,2.337
395.507,2.361
395.745,2.344
395.983,2.322
396.222,2.329
396.461,2.386
396.700,2.473
396.940,2.507
397.180,2.491
397.420,2.419
397.660,2.356
397.901,2.295
398.142,2.282
398.383,2.242
398.625,2.202
398.866,2.202
399.108,2.308
399.351,2.471
399.593,2.501
399.836,2.440
400.079,2.323
400.322,2.254
400.566,2.196
400.809,2.154
401.053,2.158
401.298,2.175
401.542,2.226
401.787,2.274
402.031,2.322
402.277,2.335
402.522,2.325
402.767,2.320
403.013,2.283
403.259,2.257
403.505,2.230
403.752,2.220
403.998,2.213
404.245,2.275
404.492,2.372
404.739,2.437
404.986,2.449
405.234,2.442
405.482,2.436
405.730,2.395
405.978,2.374
406.226,2.317
406.475,2.244
406.723,2.177
406.972,2.182
407.221,2.223
407.470,2.243
407.720,2.244
407.969,2.197
408.219,2.200
408.469,2.231
408.719,2.287
408.969,2.293
409.219,2.295
409.470,2.308
409.720,2.332
409.971,2.349
410.222,2.385
410.473,2.384
410.724,2.357
410.976,2.351
411.227,2.377
411.479,2.386
411.731,2.354
411.983,2.300
412.235,2.270
412.487,2.244
412.740,2.255
412.992,2.275
413.245,2.289
413.497,2.273
413.750,2.250
414.003,2.210
414.257,2.155
414.510,2.124
414.763,2.148
415.017,2.196
415.270,2.221
415.524,2.214
415.778,2.204
416.032,2.212
416.286,2.257
416.540,2.301
416.794,2.334
417.049,2.325
417.303,2.318
417.558,2.337
417.812,2.352
418.067,2.361
418.322,2.346
418.577,2.336
418.832,2.307
419.088,2.253
419.343,2.229
419.598,2.196
419.854,2.213
420.109,2.243
420.365,2.327
420.621,2.376
420.876,2.412
421.132,2.406
421.388,2.365
421.645,2.311
421.901,2.291
422.157,2.301
422.413,2.309
422.670,2.287
422.926,2.258
423.183,2.193
423.439,2.184
423.696,2.228
423.953,2.375
424.210,2.484
424.467,2.492
424.724,2.422
424.981,2.318
425.238,2.287
425.495,2.313
425.753,2.354
426.010,2.367
426.267,2.332
426.525,2.339
426.782,2.355
427.040,2.380
427.298,2.407
427.555,2.435
427.813,2.444
428.071,2.432
428.329,2.419
428.587,2.393
428.845,2.382
429.103,2.362
429.361,2.347
429.619,2.301
429.878,2.277
430.136,2.288
430.394,2.299
430.653,2.368
430.911,2.478
431.170,2.599
431.428,2.618
431.687,2.561
431.946,2.482
432.204,2.436
432.463,2.441
432.722,2.421
432.981,2.389
433.240,2.363
433.499,2.390
433.758,2.461
434.017,2.463
434.276,2.408
434.535,2.289
434.794,2.190
435.053,2.161
435.312,2.178
435.572,2.199
435.831,2.198
436.090,2.230
436.350,2.273
436.609,2.317
436.869,2.301
437.128,2.271
437.388,2.215
437.647,2.201
437.907,2.221
438.166,2.243
438.426,2.214
438.686,2.179
438.946,2.156
439.205,2.183
439.465,2.214
439.725,2.288
439.985,2.339
440.245,2.339
440.505,2.314
440.765,2.291
441.025,2.266
441.285,2.274
441.545,2.306
441.805,2.349
442.065,2.303
442.325,2.214
442.585,2.165
442.846,2.159
443.106,2.215
443.366,2.273
443.626,2.317
443.887,2.326
444.147,2.281
444.407,2.255
444.668,2.220
444.928,2.208
445.189,2.211
445.449,2.233
445.710,2.248
445.970,2.252
446.231,2.245
446.491,2.279
446.752,2.271
447.012,2.280
447.273,2.324
447.534,2.389
447.794,2.365
448.055,2.262
448.316,2.197
448.577,2.212
448.837,2.256
449.098,2.311
449.359,2.355
449.620,2.359
449.881,2.309
450.142,2.245
450.403,2.241
450.664,2.270
450.924,2.290
451.185,2.284
451.446,2.288
451.707,2.308
451.969,2.357
452.230,2.382
452.491,2.429
452.752,2.422
453.013,2.394
453.274,2.368
453.535,2.363
453.796,2.329
454.058,2.254
454.319,2.214
454.580,2.253
454.841,2.334
455.103,2.338
455.364,2.276
455.625,2.215
455.887,2.207
456.148,2.238
456.409,2.289
456.671,2.343
456.932,2.374
457.194,2.352
457.455,2.325
457.716,2.314
457.978,2.349
458.239,2.367
458.501,2.376
458.763,2.326
459.024,2.282
459.286,2.263
459.547,2.280
459.809,2.274
460.071,2.294
460.332,2.345
460.594,2.401
460.856,2.407
461.117,2.346
461.379,2.337
461.641,2.347
461.903,2.374
462.164,2.373
462.426,2.373
462.688,2.377
462.950,2.360
463.212,2.363
463.474,2.324
463.736,2.298
463.998,2.307
464.260,2.396
464.522,2.507
464.784,2.524
465.046,2.438
465.308,2.353
465.570,2.326
465.832,2.367
466.094,2.410
466.356,2.462
466.618,2.510
466.880,2.494
467.142,2.414
467.405,2.345
467.667,2.367
467.929,2.438
468.191,2.518
468.454,2.551
468.716,2.593
468.978,2.601
469.241,2.537
469.503,2.469
469.765,2.418
470.028,2.440
470.290,2.393
470.552,2.311
470.815,2.234
471.077,2.217
471.340,2.250
471.602,2.266
471.865,2.231
472.128,2.154
472.390,2.109
472.653,2.102
472.915,2.126
473.178,2.141
473.441,2.181
473.703,2.240
473.966,2.329
474.229,2.400
474.492,2.429
474.755,2.360
475.017,2.313
475.280,2.291
475.543,2.338
475.806,2.314
476.069,2.262
476.332,2.205
476.595,2.210
476.858,2.222
477.121,2.196
477.384,2.153
477.647,2.161
477.910,2.205
478.173,2.241
478.436,2.222
478.699,2.207
478.962,2.191
479.226,2.235
479.489,2.267
479.752,2.324
480.015,2.375
480.279,2.446
480.542,2.497
480.805,2.495
481.069,2.442
481.332,2.386
481.595,2.356
481.859,2.401
482.122,2.438
482.386,2.428
482.649,2.372
482.913,2.313
483.177,2.259
483.440,2.167
483.704,2.098
483.967,2.113
484.231,2.194
484.495,2.290
484.759,2.354
485.022,2.361
485.286,2.352
485.550,2.327
485.814,2.254
486.078,2.166
486.342,2.118
486.606,2.177
486.869,2.246
487.133,2.299
487.397,2.351
487.662,2.392
487.926,2.394
488.190,2.380
488.454,2.375
488.718,2.389
488.982,2.360
489.246,2.344
489.511,2.319
489.775,2.315
490.039,2.325
490.304,2.323
490.568,2.295
490.832,2.266
491.097,2.289
491.361,2.331
491.626,2.360
491.890,2.362
492.155,2.368
492.419,2.378
492.684,2.361
492.949,2.354
493.213,2.380
493.478,2.458
493.743,2.470
494.008,2.373
494.272,2.263
494.537,2.239
494.802,2.293
495.067,2.372
495.332,2.435
495.597,2.487
495.862,2.489
496.127,2.478
496.392,2.437
496.657,2.364
496.922,2.304
497.187,2.288
497.452,2.326
497.718,2.404
497.983,2.446
498.248,2.449
498.513,2.393
498.779,2.411
499.044,2.470
499.310,2.489
499.575,2.435
499.841,2.386
500.106,2.383
500.372,2.356
500.637,2.356
500.903,2.424
501.168,2.503
501.434,2.504
501.700,2.407
501.966,2.349
502.231,2.307
502.497,2.297
502.763,2.253
503.029,2.212
503.295,2.202
503.561,2.203
503.827,2.246
504.093,2.278
504.359,2.309
504.625,2.323
504.891,2.298
505.157,2.297
505.423,2.246
505.690,2.189
505.956,2.133
506.222,2.156
506.489,2.274
506.755,2.405
507.021,2.494
507.288,2.533
507.554,2.505
507.821,2.477
508.087,2.444
508.354,2.495
508.621,2.528
508.887,2.514
509.154,2.469
509.421,2.443
509.687,2.407
509.954,2.365
510.221,2.327
510.488,2.372
510.755,2.434
511.022,2.507
511.289,2.476
511.556,2.431
511.823,2.387
512.090,2.457
512.357,2.487
512.624,2.508
512.891,2.473
513.159,2.449
513.426,2.424
513.693,2.428
513.960,2.455
514.228,2.451
514.495,2.435
514.763,2.409
515.030,2.398
515.298,2.357
515.565,2.350
515.833,2.358
516.100,2.370
516.368,2.369
516.636,2.358
516.904,2.384
517.171,2.368
517.439,2.368
517.707,2.333
517.975,2.335
518.243,2.356
518.511,2.379
518.779,2.324
519.047,2.304
519.315,2.300
519.583,2.309
519.851,2.247
520.119,2.197
520.387,2.191
520.656,2.210
520.924,2.242
521.192,2.285
521.461,2.325
521.729,2.364
521.997,2.393
522.266,2.404
522.534,2.391
522.803,2.393
523.071,2.382
523.340,2.330
523.609,2.258
523.877,2.217
524.146,2.221
524.415,2.250
524.684,2.287
524.952,2.281
525.221,2.263
525.490,2.285
525.759,2.340
526.028,2.375
526.297,2.318
526.566,2.262
526.835,2.217
527.104,2.228
527.373,2.261
527.642,2.284
527.912,2.261
528.181,2.220
528.450,2.212
528.719,2.251
528.989,2.337
529.258,2.416
529.528,2.447
529.797,2.402
530.067,2.378
530.336,2.346
530.606,2.325
530.875,2.263
531.145,2.240
531.414,2.251
531.684,2.309
531.954,2.329
532.224,2.314
532.493,2.218
532.763,2.156
533.033,2.153
533.303,2.210
533.573,2.271
533.843,2.247
534.113,2.218
534.383,2.159
534.653,2.161
534.923,2.189
535.193,2.237
535.463,2.309
535.733,2.361
536.004,2.401
536.274,2.410
536.544,2.369
536.814,2.307
537.085,2.236
537.355,2.243
537.626,2.317
537.896,2.391
538.166,2.414
538.437,2.391
538.707,2.353
538.978,2.342
539.249,2.380
539.519,2.406
539.790,2.367
540.061,2.322
540.331,2.346
540.602,2.442
540.873,2.506
541.144,2.528
541.414,2.503
541.685,2.489
541.956,2.467
542.227,2.456
542.498,2.417
542.769,2.390
543.040,2.407
543.311,2.483
543.582,2.575
543.853,2.623
544.124,2.643
544.396,2.658
544.667,2.660
544.938,2.647
545.209,2.511
545.480,2.421
545.752,2.359
546.023,2.423
546.294,2.421
546.566,2.387
546.837,2.324
547.109,2.307
547.380,2.302
547.652,2.291
547.923,2.282
548.195,2.322
548.466,2.411
548.738,2.514
549.009,2.528
549.281,2.483
549.553,2.388
549.824,2.276
550.096,2.204
550.368,2.187
550.640,2.222
550.911,2.274
551.183,2.361
551.455,2.495
551.727,2.587
551.999,2.566
552.271,2.464
552.543,2.374
552.815,2.332
553.087,2.366
553.359,2.420
553.631,2.459
553.903,2.459
554.175,2.473
554.447,2.516
554.719,2.543
554.991,2.539
555.263,2.516
555.535,2.479
555.808,2.437
556.080,2.390
556.352,2.366
556.624,2.355
556.897,2.338
557.169,2.331
557.441,2.320
557.714,2.298
557.986,2.295
558.258,2.269
558.531,2.316
558.803,2.353
559.076,2.400
559.348,2.370
559.621,2.320
559.893,2.312
560.166,2.326
560.438,2.338
560.711,2.310
560.983,2.289
561.256,2.289
561.528,2.323
561.801,2.375
562.074,2.443
562.346,2.511
562.619,2.572
562.892,2.569
563.164,2.524
563.437,2.489
563.710,2.474
563.983,2.424
564.255,2.353
564.528,2.357
564.801,2.441
565.074,2.511
565.346,2.486
565.619,2.448
565.892,2.469
566.165,2.477
566.438,2.415
566.711,2.327
566.984,2.301
567.257,2.317
567.529,2.363
567.802,2.445
568.075,2.538
568.348,2.550
568.621,2.534
568.894,2.486
569.167,2.467
569.440,2.426
569.713,2.356
569.986,2.328
570.259,2.300
570.532,2.342
570.805,2.379
571.078,2.410
571.351,2.433
571.625,2.449
571.898,2.432
572.171,2.373
572.444,2.316
572.717,2.340
572.990,2.426
573.263,2.440
573.536,2.394
573.809,2.295
574.083,2.262
574.356,2.283
574.629,2.390
574.902,2.463
575.175,2.480
575.448,2.407
575.721,2.357
575.995,2.342
576.268,2.350
576.541,2.396
576.814,2.449
577.087,2.509
577.361,2.527
577.634,2.519
577.907,2.458
578.180,2.376
578.453,2.325
578.727,2.346
579.000,2.384
579.273,2.429
579.546,2.498
579.820,2.589
580.093,2.621
580.366,2.583
580.639,2.501
580.913,2.467
581.186,2.457
581.459,2.474
581.732,2.431
582.005,2.407
582.279,2.377
582.552,2.402
582.825,2.426
583.098,2.459
583.372,2.500
583.645,2.534
583.918,2.575
584.191,2.587
584.464,2.581
584.738,2.566
585.011,2.559
585.284,2.551
585.557,2.535
585.831,2.549
586.104,2.623
586.377,2.751
586.650,2.832
586.923,2.836
587.196,2.786
587.470,2.698
587.743,2.644
588.016,2.606
588.289,2.631
588.562,2.689
588.835,2.713
589.109,2.684
589.382,2.626
589.655,2.580
589.928,2.563
590.201,2.546
590.474,2.597
590.747,2.668
591.020,2.755
591.293,2.788
591.567,2.796
591.840,2.755
592.113,2.708
592.386,2.633
592.659,2.577
592.932,2.555
593.205,2.595
593.478,2.630
593.751,2.621
594.024,2.599
594.297,2.570
594.570,2.567
594.843,2.613
595.116,2.685
595.389,2.748
595.662,2.742
595.934,2.749
596.207,2.784
596.480,2.849
596.753,2.913
597.026,2.922
597.299,2.917
597.572,2.898
597.844,2.883
598.117,2.823
598.390,2.769
598.663,2.738
598.936,2.762
599.208,2.799
599.481,2.837
599.754,2.870
600.026,2.827
600.299,2.775
600.572,2.732
600.844,2.731
601.117,2.706
601.390,2.697
601.662,2.710
601.935,2.726
602.207,2.738
602.480,2.779
602.752,2.825
603.025,2.823
603.297,2.815
603.570,2.867
603.842,3.003
604.115,3.095
604.387,3.159
604.660,3.133
604.932,3.131
605.204,3.168
605.477,3.264
605.749,3.401
606.021,3.507
606.294,3.591
606.566,3.594
606.838,3.643
607.110,3.740
607.383,3.913
607.655,4.074
607.927,4.243
608.199,4.402
608.471,4.526
608.743,4.570
609.015,4.574
609.287,4.578
609.559,4.608
609.831,4.673
610.103,4.715
610.375,4.713
610.647,4.629
610.919,4.500
611.191,4.380
611.463,4.291
611.735,4.218
612.007,4.111
612.278,4.018
612.550,3.960
612.822,3.974
613.094,4.020
613.365,4.025
613.637,4.057
613.909,4.060
614.180,4.089
614.452,4.054
614.723,3.994
614.995,3.927
615.266,3.903
615.538,3.964
615.809,4.051
616.081,4.079
616.352,4.048
616.623,4.012
616.895,4.021
617.166,4.027
617.437,4.034
617.709,4.065
617.980,4.142
618.251,4.243
618.522,4.339
618.793,4.450
619.065,4.605
619.336,4.651
619.607,4.625
619.878,4.606
620.149,4.709
620.420,4.807
620.691,4.827
620.962,4.842
621.232,4.922
621.503,4.960
621.774,4.981
622.045,4.978
622.316,5.076
622.586,5.200
622.857,5.356
623.128,5.441
623.398,5.496
623.669,5.513
623.940,5.532
624.210,5.535
624.481,5.619
624.751,5.710
625.021,5.799
625.292,5.812
625.562,5.879
625.833,5.947
626.103,6.029
626.373,6.069
626.643,6.168
626.914,6.294
627.184,6.465
627.454,6.608
627.724,6.723
627.994,6.829
628.264,6.942
628.534,7.032
628.804,7.108
629.074,7.228
629.344,7.378
629.614,7.517
629.884,7.598
630.154,7.672
630.424,7.743
630.693,7.811
630.963,7.868
631.233,7.932
631.502,8.067
631.772,8.286
632.041,8.529
632.311,8.722
632.581,8.871
632.850,9.000
633.119,9.059
633.389,9.095
633.658,9.169
633.928,9.365
634.197,9.618
634.466,9.874
634.735,10.108
635.004,10.261
635.274,10.401
635.543,10.526
635.812,10.702
636.081,10.897
636.350,11.105
636.619,11.319
636.888,11.508
637.157,11.692
637.426,11.902
637.694,12.126
637.963,12.330
638.232,12.546
638.501,12.771
638.769,13.060
639.038,13.360
639.307,13.687
639.575,14.001
639.844,14.238
640.112,14.451
640.381,14.650
640.649,14.919
640.917,15.249
641.186,15.588
641.454,15.970
641.722,16.316
641.991,16.688
642.259,17.005
642.527,17.359
642.795,17.755
643.063,18.141
643.331,18.561
643.599,18.982
643.867,19.515
644.135,20.037
644.403,20.599
644.671,21.081
644.939,21.591
645.206,22.079
645.474,22.611
645.742,23.127
646.009,23.622
646.277,24.175
646.545,24.769
646.812,25.459
647.080,26.170
647.347,26.870
647.615,27.520
647.882,28.111
648.149,28.712
648.417,29.368
648.684,30.097
648.951,30.911
649.219,31.740
649.486,32.573
649.753,33.377
650.020,34.163
650.287,34.937
650.554,35.698
650.821,36.460
651.088,37.216
651.355,38.038
651.622,38.845
651.889,39.684
652.155,40.466
652.422,41.276
652.689,42.116
652.956,42.946
653.222,43.769
653.489,44.606
653.755,45.374
654.022,46.024
654.288,46.558
654.555,47.125
654.821,47.779
655.088,48.501
655.354,49.239
655.620,50.001
655.887,50.705
656.153,51.402
656.419,52.062
656.685,52.759
656.951,53.504
657.217,54.301
657.483,55.154
657.749,56.051
658.015,57.031
658.281,58.052
658.547,59.065
658.813,60.076
659.079,61.115
659.345,62.201
659.610,63.342
659.876,64.517
660.142,65.768
660.407,67.073
660.673,68.431
660.939,69.817
661.204,71.171
661.470,72.481
661.735,73.719
662.000,74.892
662.266,75.918
662.531,76.736
662.796,77.313
663.062,77.649
663.327,77.726
663.592,77.598
663.857,77.237
664.122,76.625
664.388,75.710
664.653,74.545
664.918,73.176
665.183,71.613
665.448,69.909
665.712,68.067
665.977,66.075
666.242,63.899
666.507,61.456
666.772,58.889
667.037,56.249
667.301,53.678
667.566,51.086
667.831,48.548
668.095,46.047
668.360,43.663
668.624,41.301
668.889,39.140
669.153,37.116
669.418,35.295
669.682,33.593
669.946,32.036
670.211,30.649
670.475,29.341
670.739,28.129
671.004,26.982
671.268,25.962
671.532,25.062
671.796,24.038
672.060,23.036
672.324,22.029
672.588,21.257
672.852,20.549
673.116,19.999
673.380,19.518
673.644,18.810
673.908,17.986
674.172,17.130
674.436,16.559
674.700,16.037
674.963,15.542
675.227,15.036
675.491,14.470
675.754,13.909
676.018,13.358
676.282,12.896
676.545,12.430
676.809,11.931
677.072,11.415
677.336,10.916
677.599,10.494
677.863,10.089
678.126,9.724
678.389,9.414
678.653,9.129
678.916,8.807
679.179,8.399
679.442,8.012
679.706,7.703
679.969,7.427
680.232,7.178
680.495,6.955
680.758,6.757
681.021,6.494
681.284,6.166
681.547,5.837
681.810,5.610
682.073,5.483
682.336,5.364
682.599,5.187
682.862,4.981
683.125,4.827
683.388,4.725
683.651,4.607
683.913,4.470
684.176,4.262
684.439,4.051
684.702,3.823
684.964,3.677
685.227,3.593
685.490,3.581
685.752,3.614
686.015,3.592
686.277,3.510
686.540,3.380
686.802,3.244
687.065,3.177
687.327,3.145
687.590,3.130
687.852,3.050
688.115,2.927
688.377,2.840
688.639,2.802
688.902,2.793
689.164,2.803
689.426,2.853
689.689,2.909
689.951,2.905
690.213,2.865
690.475,2.819
690.737,2.781
691.000,2.727
691.262,2.687
691.524,2.694
691.786,2.744
692.048,2.794
692.310,2.772
692.572,2.660
692.834,2.535
693.096,2.485
693.358,2.539
693.620,2.630
693.882,2.711
694.144,2.726
694.406,2.670
694.668,2.603
694.930,2.540
695.192,2.509
695.453,2.510
695.715,2.526
695.977,2.518
696.239,2.463
696.501,2.430
696.762,2.453
697.024,2.484
697.286,2.451
697.548,2.408
697.809,2.378
698.071,2.373
698.333,2.368
698.594,2.365
698.856,2.398
699.118,2.426
699.379,2.454
699.641,2.490
699.902,2.536
700.164,2.547
700.426,2.517
700.687,2.453
700.949,2.427
701.210,2.412
701.472,2.395
701.733,2.356
701.995,2.352
702.256,2.363
702.518,2.378
702.779,2.362
703.041,2.413
703.302,2.496
703.563,2.521
703.825,2.465
704.086,2.397
704.348,2.380
704.609,2.407
704.871,2.472
705.132,2.551
705.393,2.538
705.655,2.491
705.916,2.465
706.177,2.489
706.439,2.518
706.700,2.527
706.961,2.532
707.223,2.548
707.484,2.488
707.745,2.433
708.007,2.377
708.268,2.345
708.529,2.314
708.790,2.244
709.052,2.217
709.313,2.247
709.574,2.317
709.835,2.377
710.097,2.373
710.358,2.300
710.619,2.223
710.881,2.153
711.142,2.134
711.403,2.102
711.664,2.107
711.926,2.074
712.187,2.100
712.448,2.133
712.709,2.212
712.970,2.273
713.232,2.316
713.493,2.341
713.754,2.346
714.015,2.356
714.277,2.397
714.538,2.452
714.799,2.537
715.060,2.572
715.322,2.571
715.583,2.508
715.844,2.445
716.105,2.380
716.367,2.330
716.628,2.318
716.889,2.324
717.150,2.306
717.411,2.260
717.673,2.260
717.934,2.301
718.195,2.353
718.457,2.332
718.718,2.259
718.979,2.210
719.240,2.220
719.502,2.282
719.763,2.339
720.024,2.373
720.286,2.386
720.547,2.352
720.808,2.308
721.069,2.281
721.331,2.308
721.592,2.380
721.853,2.422
722.115,2.441
722.376,2.445
722.638,2.428
722.899,2.419
723.160,2.371
723.422,2.333
723.683,2.297
723.944,2.320
724.206,2.342
724.467,2.350
724.729,2.329
724.990,2.354
725.252,2.395
725.513,2.375
725.775,2.295
726.036,2.222
726.298,2.210
726.559,2.258
726.821,2.277
727.082,2.293
727.344,2.271
727.605,2.272
727.867,2.245
728.128,2.266
728.390,2.277
728.652,2.334
728.913,2.412
729.175,2.470
729.436,2.474
729.698,2.463
729.960,2.426
730.221,2.389
730.483,2.294
730.745,2.258
731.007,2.252
731.268,2.263
731.530,2.279
731.792,2.291
732.054,2.329
732.315,2.361
732.577,2.391
732.839,2.365
733.101,2.316
733.363,2.274
733.625,2.263
733.887,2.283
734.149,2.291
734.411,2.325
734.673,2.347
734.935,2.365
735.197,2.344
735.459,2.360
735.721,2.379
735.983,2.380
736.245,2.302
736.507,2.274
736.769,2.303
737.031,2.363
737.293,2.350
737.555,2.283
737.818,2.228
738.080,2.185
738.342,2.186
738.604,2.184
738.867,2.204
739.129,2.203
739.391,2.201
739.654,2.199
739.916,2.214
740.178,2.254
740.441,2.316
740.703,2.352
740.966,2.333
741.228,2.299
741.491,2.269
741.753,2.288
742.016,2.292
742.278,2.295
742.541,2.296
742.804,2.309
743.066,2.346
743.329,2.363
743.592,2.342
743.854,2.334
744.117,2.352
744.380,2.391
744.643,2.379
744.905,2.329
745.168,2.303
745.431,2.286
745.694,2.269
745.957,2.240
746.220,2.221
746.483,2.212
746.746,2.218
747.009,2.268
747.272,2.380
