Wavelength (nm),Intensity Source #3,,C:/Users/Brend/Desktop/MÃ s LED Spectras/Spectrometer Data.sp,,,Source #3,
379.792,2.131,,2018-06-13 13:54:39,,Integration Time,927 ms,
380.000,2.093,,Analyze Light,,Number of Scans to Average,25,
380.209,2.047,,,,Smoothing,1,
380.418,2.089
380.627,2.157
380.837,2.227
381.048,2.244
381.259,2.227
381.471,2.197
381.683,2.195
381.896,2.215
382.110,2.211
382.324,2.234
382.538,2.292
382.753,2.343
382.969,2.278
383.185,2.170
383.402,2.086
383.619,2.101
383.837,2.160
384.055,2.251
384.274,2.322
384.493,2.337
384.712,2.307
384.932,2.279
385.153,2.269
385.374,2.268
385.596,2.270
385.818,2.318
386.040,2.382
386.263,2.429
386.487,2.414
386.710,2.360
386.935,2.272
387.159,2.212
387.385,2.159
387.610,2.131
387.836,2.115
388.063,2.125
388.289,2.151
388.517,2.162
388.744,2.143
388.972,2.161
389.201,2.177
389.430,2.196
389.659,2.185
389.889,2.194
390.119,2.211
390.349,2.220
390.580,2.232
390.811,2.223
391.042,2.214
391.274,2.207
391.507,2.211
391.739,2.183
391.972,2.135
392.205,2.124
392.439,2.159
392.673,2.186
392.907,2.198
393.142,2.213
393.377,2.239
393.612,2.262
393.848,2.252
394.084,2.235
394.320,2.204
394.557,2.215
394.794,2.226
395.031,2.267
395.269,2.290
395.507,2.311
395.745,2.291
395.983,2.265
396.222,2.270
396.461,2.324
396.700,2.409
396.940,2.445
397.180,2.429
397.420,2.353
397.660,2.286
397.901,2.227
398.142,2.221
398.383,2.188
398.625,2.152
398.866,2.153
399.108,2.252
399.351,2.406
399.593,2.433
399.836,2.377
400.079,2.262
400.322,2.193
400.566,2.135
400.809,2.096
401.053,2.094
401.298,2.105
401.542,2.151
401.787,2.202
402.031,2.265
402.277,2.290
402.522,2.284
402.767,2.272
403.013,2.234
403.259,2.214
403.505,2.191
403.752,2.182
403.998,2.177
404.245,2.234
404.492,2.321
404.739,2.379
404.986,2.396
405.234,2.393
405.482,2.387
405.730,2.343
405.978,2.319
406.226,2.266
406.475,2.194
406.723,2.130
406.972,2.133
407.221,2.166
407.470,2.183
407.720,2.186
407.969,2.145
408.219,2.148
408.469,2.173
408.719,2.223
408.969,2.224
409.219,2.223
409.470,2.235
409.720,2.261
409.971,2.281
410.222,2.314
410.473,2.311
410.724,2.283
410.976,2.284
411.227,2.316
411.479,2.330
411.731,2.298
411.983,2.244
412.235,2.209
412.487,2.181
412.740,2.190
412.992,2.211
413.245,2.232
413.497,2.223
413.750,2.207
414.003,2.165
414.257,2.102
414.510,2.066
414.763,2.092
415.017,2.142
415.270,2.170
415.524,2.168
415.778,2.164
416.032,2.166
416.286,2.201
416.540,2.241
416.794,2.284
417.049,2.283
417.303,2.279
417.558,2.297
417.812,2.311
418.067,2.315
418.322,2.295
418.577,2.280
418.832,2.250
419.088,2.194
419.343,2.171
419.598,2.140
419.854,2.156
420.109,2.182
420.365,2.259
420.621,2.305
420.876,2.341
421.132,2.337
421.388,2.300
421.645,2.247
421.901,2.230
422.157,2.241
422.413,2.248
422.670,2.229
422.926,2.203
423.183,2.147
423.439,2.143
423.696,2.190
423.953,2.331
424.210,2.434
424.467,2.432
424.724,2.357
424.981,2.252
425.238,2.224
425.495,2.249
425.753,2.283
426.010,2.297
426.267,2.269
426.525,2.285
426.782,2.304
427.040,2.332
427.298,2.358
427.555,2.383
427.813,2.385
428.071,2.371
428.329,2.363
428.587,2.342
428.845,2.333
429.103,2.312
429.361,2.295
429.619,2.251
429.878,2.227
430.136,2.242
430.394,2.255
430.653,2.318
430.911,2.414
431.170,2.525
431.428,2.545
431.687,2.500
431.946,2.426
432.204,2.379
432.463,2.381
432.722,2.361
432.981,2.332
433.240,2.307
433.499,2.334
433.758,2.402
434.017,2.404
434.276,2.345
434.535,2.232
434.794,2.141
435.053,2.116
435.312,2.131
435.572,2.150
435.831,2.154
436.090,2.184
436.350,2.219
436.609,2.257
436.869,2.241
437.128,2.211
437.388,2.151
437.647,2.134
437.907,2.155
438.166,2.183
438.426,2.158
438.686,2.129
438.946,2.108
439.205,2.132
439.465,2.160
439.725,2.232
439.985,2.287
440.245,2.287
440.505,2.260
440.765,2.230
441.025,2.207
441.285,2.214
441.545,2.244
441.805,2.283
442.065,2.237
442.325,2.154
442.585,2.105
442.846,2.102
443.106,2.158
443.366,2.219
443.626,2.258
443.887,2.261
444.147,2.213
444.407,2.191
444.668,2.161
444.928,2.153
445.189,2.159
445.449,2.183
445.710,2.195
445.970,2.195
446.231,2.187
446.491,2.217
446.752,2.212
447.012,2.223
447.273,2.266
447.534,2.326
447.794,2.304
448.055,2.212
448.316,2.153
448.577,2.164
448.837,2.202
449.098,2.258
449.359,2.305
449.620,2.305
449.881,2.252
450.142,2.183
450.403,2.177
450.664,2.202
450.924,2.221
451.185,2.212
451.446,2.214
451.707,2.228
451.969,2.277
452.230,2.307
452.491,2.353
452.752,2.347
453.013,2.315
453.274,2.286
453.535,2.279
453.796,2.254
454.058,2.193
454.319,2.163
454.580,2.200
454.841,2.279
455.103,2.283
455.364,2.226
455.625,2.165
455.887,2.151
456.148,2.179
456.409,2.230
456.671,2.282
456.932,2.309
457.194,2.294
457.455,2.275
457.716,2.270
457.978,2.300
458.239,2.322
458.501,2.333
458.763,2.290
459.024,2.248
459.286,2.227
459.547,2.238
459.809,2.225
460.071,2.236
460.332,2.273
460.594,2.320
460.856,2.322
461.117,2.269
461.379,2.267
461.641,2.283
461.903,2.314
462.164,2.315
462.426,2.315
462.688,2.317
462.950,2.300
463.212,2.302
463.474,2.265
463.736,2.239
463.998,2.250
464.260,2.336
464.522,2.444
464.784,2.458
465.046,2.375
465.308,2.293
465.570,2.268
465.832,2.305
466.094,2.339
466.356,2.384
466.618,2.427
466.880,2.414
467.142,2.338
467.405,2.276
467.667,2.300
467.929,2.370
468.191,2.447
468.454,2.479
468.716,2.517
468.978,2.518
469.241,2.452
469.503,2.383
469.765,2.338
470.028,2.362
470.290,2.324
470.552,2.252
470.815,2.185
471.077,2.176
471.340,2.207
471.602,2.218
471.865,2.180
472.128,2.110
472.390,2.067
472.653,2.056
472.915,2.067
473.178,2.077
473.441,2.114
473.703,2.172
473.966,2.258
474.229,2.329
474.492,2.365
474.755,2.306
475.017,2.270
475.280,2.247
475.543,2.291
475.806,2.263
476.069,2.217
476.332,2.168
476.595,2.180
476.858,2.192
477.121,2.163
477.384,2.115
477.647,2.116
477.910,2.157
478.173,2.191
478.436,2.173
478.699,2.158
478.962,2.141
479.226,2.182
479.489,2.212
479.752,2.268
480.015,2.317
480.279,2.383
480.542,2.432
480.805,2.427
481.069,2.376
481.332,2.323
481.595,2.295
481.859,2.341
482.122,2.379
482.386,2.375
482.649,2.326
482.913,2.270
483.177,2.214
483.440,2.125
483.704,2.059
483.967,2.072
484.231,2.142
484.495,2.232
484.759,2.291
485.022,2.301
485.286,2.293
485.550,2.271
485.814,2.204
486.078,2.124
486.342,2.080
486.606,2.136
486.869,2.200
487.133,2.249
487.397,2.295
487.662,2.332
487.926,2.329
488.190,2.309
488.454,2.301
488.718,2.319
488.982,2.297
489.246,2.282
489.511,2.252
489.775,2.247
490.039,2.260
490.304,2.261
490.568,2.237
490.832,2.211
491.097,2.237
491.361,2.280
491.626,2.309
491.890,2.304
492.155,2.305
492.419,2.315
492.684,2.303
492.949,2.298
493.213,2.318
493.478,2.389
493.743,2.405
494.008,2.321
494.272,2.220
494.537,2.193
494.802,2.239
495.067,2.314
495.332,2.375
495.597,2.425
495.862,2.426
496.127,2.415
496.392,2.372
496.657,2.304
496.922,2.246
497.187,2.232
497.452,2.266
497.718,2.338
497.983,2.375
498.248,2.377
498.513,2.322
498.779,2.339
499.044,2.393
499.310,2.412
499.575,2.361
499.841,2.318
500.106,2.317
500.372,2.293
500.637,2.289
500.903,2.349
501.168,2.422
501.434,2.422
501.700,2.332
501.966,2.279
502.231,2.247
502.497,2.243
502.763,2.206
503.029,2.169
503.295,2.161
503.561,2.165
503.827,2.208
504.093,2.243
504.359,2.270
504.625,2.277
504.891,2.248
505.157,2.245
505.423,2.199
505.690,2.145
505.956,2.092
506.222,2.115
506.489,2.226
506.755,2.352
507.021,2.433
507.288,2.470
507.554,2.448
507.821,2.425
508.087,2.396
508.354,2.440
508.621,2.469
508.887,2.455
509.154,2.414
509.421,2.388
509.687,2.352
509.954,2.310
510.221,2.275
510.488,2.314
510.755,2.368
511.022,2.433
511.289,2.407
511.556,2.364
511.823,2.328
512.090,2.397
512.357,2.433
512.624,2.458
512.891,2.429
513.159,2.404
513.426,2.375
513.693,2.378
513.960,2.410
514.228,2.418
514.495,2.404
514.763,2.373
515.030,2.355
515.298,2.312
515.565,2.308
515.833,2.315
516.100,2.324
516.368,2.316
516.636,2.301
516.904,2.325
517.171,2.309
517.439,2.310
517.707,2.273
517.975,2.273
518.243,2.291
518.511,2.315
518.779,2.273
519.047,2.259
519.315,2.257
519.583,2.265
519.851,2.208
520.119,2.162
520.387,2.146
520.656,2.153
520.924,2.173
521.192,2.211
521.461,2.250
521.729,2.289
521.997,2.318
522.266,2.331
522.534,2.327
522.803,2.336
523.071,2.327
523.340,2.277
523.609,2.205
523.877,2.159
524.146,2.159
524.415,2.190
524.684,2.233
524.952,2.240
525.221,2.228
525.490,2.252
525.759,2.302
526.028,2.332
526.297,2.270
526.566,2.211
526.835,2.169
527.104,2.183
527.373,2.216
527.642,2.237
527.912,2.212
528.181,2.173
528.450,2.161
528.719,2.193
528.989,2.273
529.258,2.349
529.528,2.379
529.797,2.341
530.067,2.321
530.336,2.301
530.606,2.284
530.875,2.227
531.145,2.202
531.414,2.215
531.684,2.272
531.954,2.292
532.224,2.273
532.493,2.180
532.763,2.119
533.033,2.113
533.303,2.161
533.573,2.219
533.843,2.195
534.113,2.175
534.383,2.125
534.653,2.130
534.923,2.153
535.193,2.191
535.463,2.254
535.733,2.302
536.004,2.343
536.274,2.355
536.544,2.319
536.814,2.259
537.085,2.190
537.355,2.198
537.626,2.270
537.896,2.336
538.166,2.354
538.437,2.327
538.707,2.292
538.978,2.286
539.249,2.325
539.519,2.355
539.790,2.319
540.061,2.276
540.331,2.294
540.602,2.378
540.873,2.434
541.144,2.452
541.414,2.430
541.685,2.420
541.956,2.401
542.227,2.389
542.498,2.345
542.769,2.316
543.040,2.332
543.311,2.405
543.582,2.489
543.853,2.533
544.124,2.552
544.396,2.571
544.667,2.572
544.938,2.558
545.209,2.432
545.480,2.352
545.752,2.304
546.023,2.369
546.294,2.370
546.566,2.334
546.837,2.269
547.109,2.248
547.380,2.247
547.652,2.239
547.923,2.234
548.195,2.273
548.466,2.358
548.738,2.459
549.009,2.474
549.281,2.436
549.553,2.343
549.824,2.234
550.096,2.163
550.368,2.147
550.640,2.186
550.911,2.240
551.183,2.323
551.455,2.450
551.727,2.539
551.999,2.521
552.271,2.421
552.543,2.335
552.815,2.298
553.087,2.337
553.359,2.391
553.631,2.423
553.903,2.419
554.175,2.432
554.447,2.474
554.719,2.499
554.991,2.493
555.263,2.468
555.535,2.431
555.808,2.391
556.080,2.342
556.352,2.315
556.624,2.305
556.897,2.292
557.169,2.288
557.441,2.277
557.714,2.261
557.986,2.262
558.258,2.243
558.531,2.286
558.803,2.323
559.076,2.368
559.348,2.341
559.621,2.292
559.893,2.285
560.166,2.301
560.438,2.312
560.711,2.283
560.983,2.262
561.256,2.265
561.528,2.303
561.801,2.350
562.074,2.409
562.346,2.460
562.619,2.516
562.892,2.518
563.164,2.484
563.437,2.459
563.710,2.448
563.983,2.409
564.255,2.345
564.528,2.354
564.801,2.432
565.074,2.496
565.346,2.470
565.619,2.432
565.892,2.445
566.165,2.446
566.438,2.385
566.711,2.302
566.984,2.277
567.257,2.292
567.529,2.336
567.802,2.415
568.075,2.504
568.348,2.513
568.621,2.497
568.894,2.457
569.167,2.447
569.440,2.413
569.713,2.343
569.986,2.313
570.259,2.285
570.532,2.323
570.805,2.354
571.078,2.382
571.351,2.405
571.625,2.422
571.898,2.401
572.171,2.340
572.444,2.289
572.717,2.319
572.990,2.402
573.263,2.415
573.536,2.377
573.809,2.291
574.083,2.258
574.356,2.276
574.629,2.376
574.902,2.447
575.175,2.465
575.448,2.402
575.721,2.360
575.995,2.345
576.268,2.351
576.541,2.393
576.814,2.441
577.087,2.492
577.361,2.508
577.634,2.507
577.907,2.457
578.180,2.383
578.453,2.334
578.727,2.350
579.000,2.383
579.273,2.427
579.546,2.495
579.820,2.588
580.093,2.620
580.366,2.592
580.639,2.513
580.913,2.485
581.186,2.475
581.459,2.492
581.732,2.454
582.005,2.434
582.279,2.407
582.552,2.432
582.825,2.456
583.098,2.491
583.372,2.529
583.645,2.562
583.918,2.604
584.191,2.618
584.464,2.612
584.738,2.594
585.011,2.589
585.284,2.582
585.557,2.569
585.831,2.579
586.104,2.651
586.377,2.775
586.650,2.858
586.923,2.862
587.196,2.811
587.470,2.728
587.743,2.678
588.016,2.645
588.289,2.666
588.562,2.730
588.835,2.762
589.109,2.744
589.382,2.687
589.655,2.638
589.928,2.619
590.201,2.600
590.474,2.653
590.747,2.736
591.020,2.834
591.293,2.876
591.567,2.889
591.840,2.854
592.113,2.815
592.386,2.741
592.659,2.682
592.932,2.660
593.205,2.702
593.478,2.743
593.751,2.734
594.024,2.718
594.297,2.695
594.570,2.701
594.843,2.743
595.116,2.808
595.389,2.864
595.662,2.862
595.934,2.875
596.207,2.916
596.480,2.982
596.753,3.047
597.026,3.055
597.299,3.053
597.572,3.032
597.844,3.019
598.117,2.966
598.390,2.922
598.663,2.896
598.936,2.923
599.208,2.968
599.481,3.015
599.754,3.060
600.026,3.018
600.299,2.967
600.572,2.922
600.844,2.929
601.117,2.911
601.390,2.907
601.662,2.925
601.935,2.946
602.207,2.964
602.480,3.016
602.752,3.080
603.025,3.096
603.297,3.107
603.570,3.176
603.842,3.319
604.115,3.412
604.387,3.480
604.660,3.466
604.932,3.473
605.204,3.515
605.477,3.613
605.749,3.749
606.021,3.857
606.294,3.951
606.566,3.975
606.838,4.045
607.110,4.147
607.383,4.319
607.655,4.479
607.927,4.660
608.199,4.836
608.471,4.972
608.743,5.018
609.015,5.022
609.287,5.032
609.559,5.079
609.831,5.157
610.103,5.208
610.375,5.211
610.647,5.140
610.919,5.028
611.191,4.925
611.463,4.851
611.735,4.794
612.007,4.699
612.278,4.615
612.550,4.574
612.822,4.610
613.094,4.675
613.365,4.681
613.637,4.721
613.909,4.733
614.180,4.790
614.452,4.785
614.723,4.756
614.995,4.718
615.266,4.725
615.538,4.817
615.809,4.932
616.081,4.978
616.352,4.964
616.623,4.944
616.895,4.976
617.166,5.009
617.437,5.045
617.709,5.102
617.980,5.201
618.251,5.319
618.522,5.438
618.793,5.571
619.065,5.753
619.336,5.836
619.607,5.846
619.878,5.846
620.149,5.958
620.420,6.071
620.691,6.125
620.962,6.188
621.232,6.326
621.503,6.416
621.774,6.475
622.045,6.506
622.316,6.649
622.586,6.824
622.857,7.031
623.128,7.167
623.398,7.274
623.669,7.342
623.940,7.417
624.210,7.479
624.481,7.621
624.751,7.760
625.021,7.892
625.292,7.955
625.562,8.084
625.833,8.219
626.103,8.373
626.373,8.487
626.643,8.650
626.914,8.841
627.184,9.080
627.454,9.319
627.724,9.529
627.994,9.727
628.264,9.923
628.534,10.096
628.804,10.252
629.074,10.447
629.344,10.673
629.614,10.902
629.884,11.069
630.154,11.225
630.424,11.375
630.693,11.523
630.963,11.663
631.233,11.800
631.502,12.016
631.772,12.323
632.041,12.648
632.311,12.915
632.581,13.132
632.850,13.352
633.119,13.521
633.389,13.687
633.658,13.896
633.928,14.221
634.197,14.605
634.466,14.997
634.735,15.385
635.004,15.685
635.274,15.955
635.543,16.196
635.812,16.471
636.081,16.768
636.350,17.085
636.619,17.411
636.888,17.719
637.157,18.011
637.426,18.355
637.694,18.718
637.963,19.071
638.232,19.418
638.501,19.778
638.769,20.217
639.038,20.684
639.307,21.188
639.575,21.690
639.844,22.131
640.112,22.549
640.381,22.951
640.649,23.430
640.917,23.969
641.186,24.524
641.454,25.114
641.722,25.692
641.991,26.306
642.259,26.843
642.527,27.382
642.795,27.965
643.063,28.566
643.331,29.233
643.599,29.898
643.867,30.683
644.135,31.459
644.403,32.287
644.671,33.031
644.939,33.796
645.206,34.526
645.474,35.336
645.742,36.161
646.009,37.013
646.277,37.930
646.545,38.909
646.812,39.981
647.080,41.089
647.347,42.194
647.615,43.266
647.882,44.268
648.149,45.288
648.417,46.338
648.684,47.442
648.951,48.589
649.219,49.735
649.486,50.862
649.753,51.943
650.020,52.967
650.287,53.962
650.554,54.894
650.821,55.805
651.088,56.659
651.355,57.563
651.622,58.435
651.889,59.344
652.155,60.197
652.422,61.074
652.689,62.002
652.956,62.939
653.222,63.909
653.489,64.917
653.755,65.888
654.022,66.782
654.288,67.607
654.555,68.534
654.821,69.610
655.088,70.770
655.354,71.946
655.620,73.125
655.887,74.260
656.153,75.366
656.419,76.434
656.685,77.506
656.951,78.607
657.217,79.731
657.483,80.891
657.749,82.057
658.015,83.193
658.281,84.209
658.547,85.022
658.813,85.621
659.079,86.024
659.345,86.278
659.610,86.424
659.876,86.476
660.142,86.438
660.407,86.285
660.673,86.011
660.939,85.606
661.204,85.001
661.470,84.165
661.735,83.051
662.000,81.667
662.266,79.980
662.531,78.010
662.796,75.793
663.062,73.354
663.327,70.701
663.592,67.918
663.857,65.057
664.122,62.147
664.388,59.187
664.653,56.223
664.918,53.319
665.183,50.477
665.448,47.766
665.712,45.204
665.977,42.812
666.242,40.558
666.507,38.360
666.772,36.313
667.037,34.407
667.301,32.737
667.566,31.218
667.831,29.856
668.095,28.594
668.360,27.435
668.624,26.313
668.889,25.336
669.153,24.415
669.418,23.581
669.682,22.780
669.946,22.051
670.211,21.420
670.475,20.773
670.739,20.147
671.004,19.516
671.268,18.967
671.532,18.482
671.796,17.813
672.060,17.107
672.324,16.364
672.588,15.803
672.852,15.278
673.116,14.867
673.380,14.508
673.644,13.901
673.908,13.167
674.172,12.404
674.436,11.920
674.700,11.490
674.963,11.082
675.227,10.670
675.491,10.201
675.754,9.742
676.018,9.299
676.282,8.949
676.545,8.601
676.809,8.218
677.072,7.823
677.336,7.451
677.599,7.153
677.863,6.864
678.126,6.618
678.389,6.422
678.653,6.236
678.916,6.005
679.179,5.704
679.442,5.441
679.706,5.256
679.969,5.089
680.232,4.939
680.495,4.808
680.758,4.707
681.021,4.558
681.284,4.351
681.547,4.136
681.810,4.013
682.073,3.978
682.336,3.946
682.599,3.847
682.862,3.715
683.125,3.626
683.388,3.592
683.651,3.542
683.913,3.468
684.176,3.329
684.439,3.180
684.702,3.020
684.964,2.920
685.227,2.880
685.490,2.913
685.752,2.994
686.015,3.011
686.277,2.957
686.540,2.847
686.802,2.741
687.065,2.699
687.327,2.686
687.590,2.690
687.852,2.642
688.115,2.562
688.377,2.516
688.639,2.508
688.902,2.523
689.164,2.546
689.426,2.600
689.689,2.650
689.951,2.646
690.213,2.612
690.475,2.584
690.737,2.563
691.000,2.519
691.262,2.486
691.524,2.500
691.786,2.558
692.048,2.611
692.310,2.597
692.572,2.497
692.834,2.384
693.096,2.337
693.358,2.391
693.620,2.482
693.882,2.560
694.144,2.574
694.406,2.525
694.668,2.470
694.930,2.420
695.192,2.392
695.453,2.394
695.715,2.409
695.977,2.405
696.239,2.355
696.501,2.328
696.762,2.357
697.024,2.386
697.286,2.355
697.548,2.311
697.809,2.285
698.071,2.280
698.333,2.274
698.594,2.272
698.856,2.309
699.118,2.344
699.379,2.377
699.641,2.412
699.902,2.459
700.164,2.468
700.426,2.437
700.687,2.371
700.949,2.349
701.210,2.337
701.472,2.323
701.733,2.284
701.995,2.278
702.256,2.286
702.518,2.297
702.779,2.280
703.041,2.330
703.302,2.411
703.563,2.432
703.825,2.380
704.086,2.314
704.348,2.304
704.609,2.332
704.871,2.397
705.132,2.473
705.393,2.465
705.655,2.427
705.916,2.401
706.177,2.416
706.439,2.437
706.700,2.446
706.961,2.452
707.223,2.468
707.484,2.408
707.745,2.355
708.007,2.296
708.268,2.262
708.529,2.230
708.790,2.170
709.052,2.149
709.313,2.179
709.574,2.242
709.835,2.298
710.097,2.293
710.358,2.222
710.619,2.153
710.881,2.095
711.142,2.084
711.403,2.064
711.664,2.075
711.926,2.047
712.187,2.069
712.448,2.100
712.709,2.171
712.970,2.228
713.232,2.264
713.493,2.283
713.754,2.285
714.015,2.290
714.277,2.327
714.538,2.375
714.799,2.458
715.060,2.496
715.322,2.500
715.583,2.443
715.844,2.385
716.105,2.323
716.367,2.277
716.628,2.262
716.889,2.269
717.150,2.256
717.411,2.215
717.673,2.220
717.934,2.257
718.195,2.305
718.457,2.283
718.718,2.213
718.979,2.171
719.240,2.183
719.502,2.244
719.763,2.289
720.024,2.308
720.286,2.310
720.547,2.273
720.808,2.231
721.069,2.208
721.331,2.240
721.592,2.315
721.853,2.359
722.115,2.374
722.376,2.377
722.638,2.361
722.899,2.356
723.160,2.314
723.422,2.280
723.683,2.243
723.944,2.264
724.206,2.282
724.467,2.288
724.729,2.266
724.990,2.289
725.252,2.329
725.513,2.309
725.775,2.232
726.036,2.166
726.298,2.155
726.559,2.198
726.821,2.209
727.082,2.223
727.344,2.205
727.605,2.209
727.867,2.187
728.128,2.208
728.390,2.222
728.652,2.280
728.913,2.355
729.175,2.409
729.436,2.412
729.698,2.407
729.960,2.379
730.221,2.348
730.483,2.257
730.745,2.216
731.007,2.211
731.268,2.227
731.530,2.245
731.792,2.251
732.054,2.282
732.315,2.305
732.577,2.330
732.839,2.302
733.101,2.252
733.363,2.214
733.625,2.204
733.887,2.227
734.149,2.234
734.411,2.268
734.673,2.291
734.935,2.312
735.197,2.297
735.459,2.314
735.721,2.328
735.983,2.320
736.245,2.239
736.507,2.207
736.769,2.230
737.031,2.283
737.293,2.264
737.555,2.202
737.818,2.155
738.080,2.129
738.342,2.143
738.604,2.150
738.867,2.167
739.129,2.160
739.391,2.154
739.654,2.155
739.916,2.175
740.178,2.216
740.441,2.283
740.703,2.318
740.966,2.291
741.228,2.247
741.491,2.204
741.753,2.219
742.016,2.217
742.278,2.223
742.541,2.232
742.804,2.249
743.066,2.293
743.329,2.314
743.592,2.298
743.854,2.284
744.117,2.295
744.380,2.329
744.643,2.319
744.905,2.276
745.168,2.251
745.431,2.233
745.694,2.211
745.957,2.181
746.220,2.162
746.483,2.156
746.746,2.161
747.009,2.212
747.272,2.322
