Wavelength (nm),Intensity Source #54,,C:/Users/Brend/Desktop/MÃ s LED Spectras/Spectrometer Data.sp,,,Source #54,
379.792,2.186,,2018-06-13 14:46:11,,Integration Time,927 ms,
380.000,2.141,,Analyze Light,,Number of Scans to Average,25,
380.209,2.084,,,,Smoothing,1,
380.418,2.121
380.627,2.188
380.837,2.259
381.048,2.272
381.259,2.253
381.471,2.220
381.683,2.216
381.896,2.238
382.110,2.238
382.324,2.261
382.538,2.318
382.753,2.362
382.969,2.297
383.185,2.190
383.402,2.108
383.619,2.123
383.837,2.182
384.055,2.277
384.274,2.357
384.493,2.376
384.712,2.351
384.932,2.320
385.153,2.310
385.374,2.303
385.596,2.304
385.818,2.351
386.040,2.416
386.263,2.463
386.487,2.437
386.710,2.380
386.935,2.289
387.159,2.236
387.385,2.187
387.610,2.164
387.836,2.149
388.063,2.155
388.289,2.176
388.517,2.182
388.744,2.163
388.972,2.185
389.201,2.201
389.430,2.217
389.659,2.201
389.889,2.206
390.119,2.220
390.349,2.226
390.580,2.242
390.811,2.240
391.042,2.236
391.274,2.230
391.507,2.232
391.739,2.202
391.972,2.152
392.205,2.141
392.439,2.180
392.673,2.211
392.907,2.225
393.142,2.242
393.377,2.268
393.612,2.294
393.848,2.286
394.084,2.273
394.320,2.244
394.557,2.251
394.794,2.258
395.031,2.293
395.269,2.315
395.507,2.336
395.745,2.316
395.983,2.292
396.222,2.297
396.461,2.352
396.700,2.435
396.940,2.467
397.180,2.450
397.420,2.378
397.660,2.314
397.901,2.259
398.142,2.252
398.383,2.218
398.625,2.176
398.866,2.174
399.108,2.272
399.351,2.433
399.593,2.465
399.836,2.410
400.079,2.297
400.322,2.226
400.566,2.164
400.809,2.119
401.053,2.120
401.298,2.134
401.542,2.182
401.787,2.231
402.031,2.289
402.277,2.312
402.522,2.305
402.767,2.297
403.013,2.259
403.259,2.238
403.505,2.209
403.752,2.194
403.998,2.183
404.245,2.243
404.492,2.337
404.739,2.401
404.986,2.420
405.234,2.418
405.482,2.409
405.730,2.364
405.978,2.339
406.226,2.286
406.475,2.210
406.723,2.140
406.972,2.145
407.221,2.189
407.470,2.217
407.720,2.223
407.969,2.179
408.219,2.176
408.469,2.198
408.719,2.250
408.969,2.257
409.219,2.267
409.470,2.285
409.720,2.310
409.971,2.322
410.222,2.348
410.473,2.347
410.724,2.320
410.976,2.321
411.227,2.349
411.479,2.361
411.731,2.331
411.983,2.279
412.235,2.248
412.487,2.220
412.740,2.229
412.992,2.245
413.245,2.259
413.497,2.242
413.750,2.222
414.003,2.183
414.257,2.128
414.510,2.095
414.763,2.119
415.017,2.163
415.270,2.186
415.524,2.181
415.778,2.176
416.032,2.186
416.286,2.230
416.540,2.269
416.794,2.300
417.049,2.291
417.303,2.287
417.558,2.311
417.812,2.333
418.067,2.343
418.322,2.323
418.577,2.307
418.832,2.275
419.088,2.222
419.343,2.204
419.598,2.177
419.854,2.196
420.109,2.223
420.365,2.300
420.621,2.344
420.876,2.380
421.132,2.379
421.388,2.347
421.645,2.298
421.901,2.278
422.157,2.284
422.413,2.287
422.670,2.264
422.926,2.234
423.183,2.173
423.439,2.167
423.696,2.211
423.953,2.352
424.210,2.456
424.467,2.461
424.724,2.394
424.981,2.293
425.238,2.263
425.495,2.287
425.753,2.325
426.010,2.333
426.267,2.294
426.525,2.297
426.782,2.315
427.040,2.344
427.298,2.375
427.555,2.406
427.813,2.413
428.071,2.402
428.329,2.390
428.587,2.371
428.845,2.366
429.103,2.349
429.361,2.340
429.619,2.300
429.878,2.277
430.136,2.275
430.394,2.273
430.653,2.332
430.911,2.438
431.170,2.558
431.428,2.577
431.687,2.526
431.946,2.450
432.204,2.407
432.463,2.411
432.722,2.393
432.981,2.362
433.240,2.339
433.499,2.367
433.758,2.437
434.017,2.441
434.276,2.388
434.535,2.273
434.794,2.180
435.053,2.153
435.312,2.163
435.572,2.176
435.831,2.173
436.090,2.206
436.350,2.246
436.609,2.284
436.869,2.267
437.128,2.234
437.388,2.178
437.647,2.168
437.907,2.196
438.166,2.226
438.426,2.199
438.686,2.162
438.946,2.136
439.205,2.161
439.465,2.189
439.725,2.256
439.985,2.309
440.245,2.312
440.505,2.292
440.765,2.267
441.025,2.242
441.285,2.249
441.545,2.280
441.805,2.325
442.065,2.285
442.325,2.200
442.585,2.148
442.846,2.138
443.106,2.193
443.366,2.249
443.626,2.287
443.887,2.292
444.147,2.247
444.407,2.227
444.668,2.195
444.928,2.188
445.189,2.193
445.449,2.217
445.710,2.233
445.970,2.235
446.231,2.224
446.491,2.254
446.752,2.246
447.012,2.258
447.273,2.305
447.534,2.367
447.794,2.341
448.055,2.236
448.316,2.172
448.577,2.189
448.837,2.235
449.098,2.295
449.359,2.340
449.620,2.344
449.881,2.293
450.142,2.227
450.403,2.217
450.664,2.240
450.924,2.255
451.185,2.247
451.446,2.251
451.707,2.267
451.969,2.315
452.230,2.343
452.491,2.393
452.752,2.385
453.013,2.353
453.274,2.323
453.535,2.319
453.796,2.288
454.058,2.219
454.319,2.182
454.580,2.220
454.841,2.301
455.103,2.306
455.364,2.248
455.625,2.189
455.887,2.181
456.148,2.209
456.409,2.258
456.671,2.312
456.932,2.342
457.194,2.324
457.455,2.302
457.716,2.295
457.978,2.323
458.239,2.335
458.501,2.341
458.763,2.295
459.024,2.256
459.286,2.238
459.547,2.258
459.809,2.252
460.071,2.269
460.332,2.314
460.594,2.366
460.856,2.374
461.117,2.316
461.379,2.307
461.641,2.316
461.903,2.341
462.164,2.335
462.426,2.329
462.688,2.333
462.950,2.322
463.212,2.333
463.474,2.301
463.736,2.273
463.998,2.275
464.260,2.355
464.522,2.465
464.784,2.482
465.046,2.403
465.308,2.319
465.570,2.298
465.832,2.338
466.094,2.381
466.356,2.429
466.618,2.473
466.880,2.457
467.142,2.379
467.405,2.315
467.667,2.339
467.929,2.413
468.191,2.492
468.454,2.526
468.716,2.570
468.978,2.578
469.241,2.518
469.503,2.450
469.765,2.399
470.028,2.420
470.290,2.372
470.552,2.295
470.815,2.219
471.077,2.203
471.340,2.233
471.602,2.249
471.865,2.219
472.128,2.147
472.390,2.100
472.653,2.090
472.915,2.107
473.178,2.120
473.441,2.160
473.703,2.220
473.966,2.306
474.229,2.371
474.492,2.397
474.755,2.333
475.017,2.294
475.280,2.278
475.543,2.327
475.806,2.302
476.069,2.250
476.332,2.196
476.595,2.203
476.858,2.216
477.121,2.189
477.384,2.142
477.647,2.141
477.910,2.182
478.173,2.215
478.436,2.196
478.699,2.178
478.962,2.164
479.226,2.208
479.489,2.243
479.752,2.300
480.015,2.351
480.279,2.423
480.542,2.474
480.805,2.468
481.069,2.409
481.332,2.348
481.595,2.318
481.859,2.364
482.122,2.404
482.386,2.400
482.649,2.352
482.913,2.297
483.177,2.246
483.440,2.159
483.704,2.094
483.967,2.106
484.231,2.175
484.495,2.270
484.759,2.337
485.022,2.349
485.286,2.337
485.550,2.307
485.814,2.232
486.078,2.146
486.342,2.099
486.606,2.156
486.869,2.219
487.133,2.268
487.397,2.319
487.662,2.360
487.926,2.364
488.190,2.352
488.454,2.349
488.718,2.364
488.982,2.336
489.246,2.323
489.511,2.297
489.775,2.291
490.039,2.300
490.304,2.294
490.568,2.265
490.832,2.232
491.097,2.258
491.361,2.299
491.626,2.328
491.890,2.322
492.155,2.326
492.419,2.337
492.684,2.329
492.949,2.328
493.213,2.353
493.478,2.425
493.743,2.439
494.008,2.352
494.272,2.250
494.537,2.230
494.802,2.282
495.067,2.356
495.332,2.411
495.597,2.452
495.862,2.450
496.127,2.441
496.392,2.407
496.657,2.340
496.922,2.279
497.187,2.259
497.452,2.295
497.718,2.374
497.983,2.415
498.248,2.420
498.513,2.362
498.779,2.379
499.044,2.435
499.310,2.453
499.575,2.403
499.841,2.355
500.106,2.354
500.372,2.326
500.637,2.324
500.903,2.387
501.168,2.457
501.434,2.451
501.700,2.356
501.966,2.306
502.231,2.276
502.497,2.270
502.763,2.227
503.029,2.183
503.295,2.172
503.561,2.179
503.827,2.228
504.093,2.266
504.359,2.295
504.625,2.304
504.891,2.278
505.157,2.277
505.423,2.225
505.690,2.164
505.956,2.104
506.222,2.129
506.489,2.248
506.755,2.380
507.021,2.465
507.288,2.500
507.554,2.473
507.821,2.452
508.087,2.425
508.354,2.475
508.621,2.501
508.887,2.484
509.154,2.440
509.421,2.414
509.687,2.379
509.954,2.339
510.221,2.306
510.488,2.350
510.755,2.408
511.022,2.474
511.289,2.444
511.556,2.401
511.823,2.361
512.090,2.429
512.357,2.459
512.624,2.481
512.891,2.446
513.159,2.422
513.426,2.399
513.693,2.409
513.960,2.438
514.228,2.436
514.495,2.419
514.763,2.396
515.030,2.385
515.298,2.343
515.565,2.333
515.833,2.340
516.100,2.352
516.368,2.353
516.636,2.341
516.904,2.366
517.171,2.348
517.439,2.347
517.707,2.307
517.975,2.303
518.243,2.319
518.511,2.343
518.779,2.294
519.047,2.279
519.315,2.278
519.583,2.288
519.851,2.225
520.119,2.176
520.387,2.165
520.656,2.180
520.924,2.210
521.192,2.253
521.461,2.292
521.729,2.326
521.997,2.354
522.266,2.365
522.534,2.353
522.803,2.355
523.071,2.340
523.340,2.286
523.609,2.219
523.877,2.181
524.146,2.189
524.415,2.214
524.684,2.251
524.952,2.248
525.221,2.236
525.490,2.263
525.759,2.319
526.028,2.351
526.297,2.292
526.566,2.235
526.835,2.197
527.104,2.213
527.373,2.247
527.642,2.267
527.912,2.239
528.181,2.196
528.450,2.187
528.719,2.227
528.989,2.313
529.258,2.391
529.528,2.417
529.797,2.371
530.067,2.346
530.336,2.320
530.606,2.305
530.875,2.248
531.145,2.223
531.414,2.226
531.684,2.276
531.954,2.298
532.224,2.284
532.493,2.190
532.763,2.125
533.033,2.121
533.303,2.179
533.573,2.243
533.843,2.220
534.113,2.192
534.383,2.134
534.653,2.139
534.923,2.161
535.193,2.204
535.463,2.271
535.733,2.322
536.004,2.363
536.274,2.375
536.544,2.340
536.814,2.281
537.085,2.209
537.355,2.216
537.626,2.293
537.896,2.363
538.166,2.383
538.437,2.356
538.707,2.323
538.978,2.319
539.249,2.362
539.519,2.393
539.790,2.353
540.061,2.305
540.331,2.322
540.602,2.414
540.873,2.475
541.144,2.491
541.414,2.463
541.685,2.447
541.956,2.430
542.227,2.421
542.498,2.383
542.769,2.356
543.040,2.371
543.311,2.447
543.582,2.534
543.853,2.578
544.124,2.594
544.396,2.610
544.667,2.616
544.938,2.606
545.209,2.474
545.480,2.386
545.752,2.329
546.023,2.394
546.294,2.394
546.566,2.358
546.837,2.292
547.109,2.271
547.380,2.267
547.652,2.263
547.923,2.256
548.195,2.294
548.466,2.374
548.738,2.471
549.009,2.481
549.281,2.442
549.553,2.355
549.824,2.253
550.096,2.184
550.368,2.169
550.640,2.207
550.911,2.259
551.183,2.342
551.455,2.469
551.727,2.557
551.999,2.539
552.271,2.438
552.543,2.350
552.815,2.304
553.087,2.334
553.359,2.386
553.631,2.427
553.903,2.430
554.175,2.441
554.447,2.481
554.719,2.504
554.991,2.500
555.263,2.474
555.535,2.438
555.808,2.397
556.080,2.353
556.352,2.327
556.624,2.317
556.897,2.306
557.169,2.307
557.441,2.297
557.714,2.275
557.986,2.273
558.258,2.251
558.531,2.294
558.803,2.327
559.076,2.369
559.348,2.344
559.621,2.298
559.893,2.293
560.166,2.306
560.438,2.318
560.711,2.290
560.983,2.270
561.256,2.268
561.528,2.305
561.801,2.355
562.074,2.419
562.346,2.481
562.619,2.536
562.892,2.529
563.164,2.482
563.437,2.455
563.710,2.448
563.983,2.409
564.255,2.340
564.528,2.345
564.801,2.423
565.074,2.486
565.346,2.459
565.619,2.423
565.892,2.445
566.165,2.449
566.438,2.389
566.711,2.306
566.984,2.284
567.257,2.297
567.529,2.338
567.802,2.415
568.075,2.503
568.348,2.511
568.621,2.491
568.894,2.445
569.167,2.431
569.440,2.397
569.713,2.329
569.986,2.303
570.259,2.279
570.532,2.325
570.805,2.362
571.078,2.392
571.351,2.410
571.625,2.422
571.898,2.401
572.171,2.341
572.444,2.290
572.717,2.320
572.990,2.408
573.263,2.421
573.536,2.374
573.809,2.276
574.083,2.240
574.356,2.259
574.629,2.363
574.902,2.437
575.175,2.457
575.448,2.389
575.721,2.341
575.995,2.326
576.268,2.336
576.541,2.383
576.814,2.435
577.087,2.491
577.361,2.509
577.634,2.505
577.907,2.442
578.180,2.360
578.453,2.313
578.727,2.335
579.000,2.375
579.273,2.420
579.546,2.491
579.820,2.582
580.093,2.612
580.366,2.574
580.639,2.492
580.913,2.458
581.186,2.448
581.459,2.462
581.732,2.417
582.005,2.390
582.279,2.360
582.552,2.384
582.825,2.410
583.098,2.439
583.372,2.472
583.645,2.497
583.918,2.536
584.191,2.554
584.464,2.554
584.738,2.541
585.011,2.534
585.284,2.525
585.557,2.513
585.831,2.527
586.104,2.602
586.377,2.725
586.650,2.808
586.923,2.813
587.196,2.765
587.470,2.680
587.743,2.627
588.016,2.590
588.289,2.612
588.562,2.669
588.835,2.690
589.109,2.657
589.382,2.595
589.655,2.551
589.928,2.540
590.201,2.529
590.474,2.585
590.747,2.664
591.020,2.757
591.293,2.789
591.567,2.790
591.840,2.741
592.113,2.695
592.386,2.624
592.659,2.571
592.932,2.550
593.205,2.590
593.478,2.630
593.751,2.624
594.024,2.603
594.297,2.577
594.570,2.575
594.843,2.619
595.116,2.686
595.389,2.744
595.662,2.740
595.934,2.750
596.207,2.786
596.480,2.849
596.753,2.906
597.026,2.914
597.299,2.910
597.572,2.898
597.844,2.886
598.117,2.830
598.390,2.773
598.663,2.738
598.936,2.760
599.208,2.801
599.481,2.841
599.754,2.873
600.026,2.827
600.299,2.774
600.572,2.733
600.844,2.732
601.117,2.707
601.390,2.695
601.662,2.706
601.935,2.721
602.207,2.734
602.480,2.778
602.752,2.833
603.025,2.839
603.297,2.839
603.570,2.891
603.842,3.024
604.115,3.117
604.387,3.183
604.660,3.165
604.932,3.162
605.204,3.197
605.477,3.283
605.749,3.412
606.021,3.514
606.294,3.599
606.566,3.602
606.838,3.649
607.110,3.743
607.383,3.915
607.655,4.080
607.927,4.260
608.199,4.434
608.471,4.577
608.743,4.628
609.015,4.633
609.287,4.636
609.559,4.674
609.831,4.739
610.103,4.778
610.375,4.772
610.647,4.695
610.919,4.574
611.191,4.464
611.463,4.389
611.735,4.321
612.007,4.213
612.278,4.120
612.550,4.069
612.822,4.083
613.094,4.119
613.365,4.113
613.637,4.141
613.909,4.148
614.180,4.185
614.452,4.160
614.723,4.107
614.995,4.046
615.266,4.029
615.538,4.099
615.809,4.193
616.081,4.230
616.352,4.204
616.623,4.173
616.895,4.186
617.166,4.200
617.437,4.210
617.709,4.242
617.980,4.314
618.251,4.414
618.522,4.520
618.793,4.652
619.065,4.825
619.336,4.887
619.607,4.874
619.878,4.860
620.149,4.963
620.420,5.062
620.691,5.094
620.962,5.121
621.232,5.209
621.503,5.255
621.774,5.283
622.045,5.293
622.316,5.409
622.586,5.551
622.857,5.724
623.128,5.825
623.398,5.897
623.669,5.932
623.940,5.969
624.210,5.987
624.481,6.091
624.751,6.206
625.021,6.321
625.292,6.360
625.562,6.449
625.833,6.542
626.103,6.644
626.373,6.705
626.643,6.826
626.914,6.978
627.184,7.176
627.454,7.332
627.724,7.450
627.994,7.561
628.264,7.702
628.534,7.824
628.804,7.935
629.074,8.081
629.344,8.267
629.614,8.452
629.884,8.590
630.154,8.719
630.424,8.841
630.693,8.958
630.963,9.061
631.233,9.169
631.502,9.356
631.772,9.630
632.041,9.927
632.311,10.158
632.581,10.341
632.850,10.506
633.119,10.606
633.389,10.690
633.658,10.805
633.928,11.033
634.197,11.312
634.466,11.600
634.735,11.881
635.004,12.084
635.274,12.271
635.543,12.450
635.812,12.682
636.081,12.940
636.350,13.215
636.619,13.507
636.888,13.795
637.157,14.087
637.426,14.409
637.694,14.733
637.963,15.030
638.232,15.336
638.501,15.657
638.769,16.027
639.038,16.396
639.307,16.785
639.575,17.172
639.844,17.478
640.112,17.747
640.381,17.987
640.649,18.299
640.917,18.691
641.186,19.103
641.454,19.562
641.722,20.010
641.991,20.497
642.259,20.943
642.527,21.408
642.795,21.926
643.063,22.443
643.331,23.002
643.599,23.574
643.867,24.280
644.135,24.992
644.403,25.744
644.671,26.421
644.939,27.120
645.206,27.804
645.474,28.515
645.742,29.206
646.009,29.862
646.277,30.586
646.545,31.326
646.812,32.152
647.080,32.965
647.347,33.779
647.615,34.541
647.882,35.233
648.149,35.939
648.417,36.696
648.684,37.555
648.951,38.525
649.219,39.534
649.486,40.562
649.753,41.573
650.020,42.573
650.287,43.588
650.554,44.587
650.821,45.597
651.088,46.582
651.355,47.634
651.622,48.636
651.889,49.654
652.155,50.590
652.422,51.561
652.689,52.539
652.956,53.461
653.222,54.334
653.489,55.184
653.755,55.970
654.022,56.635
654.288,57.188
654.555,57.788
654.821,58.491
655.088,59.290
655.354,60.113
655.620,60.985
655.887,61.861
656.153,62.784
656.419,63.728
656.685,64.715
656.951,65.779
657.217,66.927
657.483,68.180
657.749,69.545
658.015,71.026
658.281,72.551
658.547,74.030
658.813,75.462
659.079,76.858
659.345,78.206
659.610,79.516
659.876,80.780
660.142,82.013
660.407,83.161
660.673,84.201
660.939,85.111
661.204,85.844
661.470,86.410
661.735,86.823
662.000,87.138
662.266,87.333
662.531,87.380
662.796,87.262
663.062,86.975
663.327,86.509
663.592,85.867
663.857,84.992
664.122,83.819
664.388,82.295
664.653,80.469
664.918,78.408
665.183,76.149
665.448,73.770
665.712,71.297
665.977,68.751
666.242,66.097
666.507,63.271
666.772,60.400
667.037,57.523
667.301,54.775
667.566,52.062
667.831,49.447
668.095,46.909
668.360,44.520
668.624,42.193
668.889,40.078
669.153,38.097
669.418,36.312
669.682,34.646
669.946,33.128
670.211,31.762
670.475,30.449
670.739,29.219
671.004,28.072
671.268,27.071
671.532,26.202
671.796,25.190
672.060,24.180
672.324,23.166
672.588,22.374
672.852,21.654
673.116,21.084
673.380,20.580
673.644,19.837
673.908,18.960
674.172,18.066
674.436,17.446
674.700,16.876
674.963,16.325
675.227,15.768
675.491,15.173
675.754,14.583
676.018,14.007
676.282,13.507
676.545,12.996
676.809,12.453
677.072,11.898
677.336,11.361
677.599,10.902
677.863,10.452
678.126,10.063
678.389,9.741
678.653,9.437
678.916,9.090
679.179,8.659
679.442,8.265
679.706,7.949
679.969,7.657
680.232,7.381
680.495,7.129
680.758,6.913
681.021,6.655
681.284,6.332
681.547,6.009
681.810,5.777
682.073,5.643
682.336,5.509
682.599,5.322
682.862,5.113
683.125,4.957
683.388,4.854
683.651,4.725
683.913,4.573
684.176,4.346
684.439,4.127
684.702,3.895
684.964,3.740
685.227,3.646
685.490,3.624
685.752,3.652
686.015,3.623
686.277,3.535
686.540,3.399
686.802,3.262
687.065,3.190
687.327,3.155
687.590,3.133
687.852,3.059
688.115,2.944
688.377,2.865
688.639,2.827
688.902,2.814
689.164,2.821
689.426,2.862
689.689,2.902
689.951,2.884
690.213,2.834
690.475,2.792
690.737,2.767
691.000,2.721
691.262,2.682
691.524,2.684
691.786,2.733
692.048,2.783
692.310,2.761
692.572,2.649
692.834,2.522
693.096,2.469
693.358,2.520
693.620,2.610
693.882,2.688
694.144,2.700
694.406,2.648
694.668,2.587
694.930,2.525
695.192,2.485
695.453,2.479
695.715,2.492
695.977,2.488
696.239,2.434
696.501,2.400
696.762,2.421
697.024,2.452
697.286,2.422
697.548,2.381
697.809,2.354
698.071,2.346
698.333,2.336
698.594,2.332
698.856,2.373
699.118,2.409
699.379,2.439
699.641,2.473
699.902,2.517
700.164,2.527
700.426,2.494
700.687,2.427
700.949,2.402
701.210,2.389
701.472,2.372
701.733,2.329
701.995,2.318
702.256,2.326
702.518,2.341
702.779,2.327
703.041,2.379
703.302,2.461
703.563,2.485
703.825,2.433
704.086,2.369
704.348,2.360
704.609,2.386
704.871,2.447
705.132,2.521
705.393,2.509
705.655,2.462
705.916,2.430
706.177,2.447
706.439,2.476
706.700,2.496
706.961,2.510
707.223,2.530
707.484,2.472
707.745,2.419
708.007,2.365
708.268,2.335
708.529,2.304
708.790,2.232
709.052,2.197
709.313,2.219
709.574,2.283
709.835,2.342
710.097,2.338
710.358,2.266
710.619,2.192
710.881,2.126
711.142,2.109
711.403,2.082
711.664,2.091
711.926,2.062
712.187,2.089
712.448,2.122
712.709,2.198
712.970,2.257
713.232,2.297
713.493,2.320
713.754,2.323
714.015,2.329
714.277,2.365
714.538,2.414
714.799,2.495
715.060,2.529
715.322,2.530
715.583,2.469
715.844,2.410
716.105,2.345
716.367,2.294
716.628,2.279
716.889,2.287
717.150,2.274
717.411,2.232
717.673,2.234
717.934,2.276
718.195,2.330
718.457,2.314
718.718,2.244
718.979,2.195
719.240,2.201
719.502,2.261
719.763,2.316
720.024,2.345
720.286,2.357
720.547,2.321
720.808,2.277
721.069,2.247
721.331,2.275
721.592,2.351
721.853,2.393
722.115,2.403
722.376,2.397
722.638,2.381
722.899,2.376
723.160,2.332
723.422,2.298
723.683,2.269
723.944,2.296
724.206,2.317
724.467,2.320
724.729,2.299
724.990,2.322
725.252,2.364
725.513,2.344
725.775,2.265
726.036,2.193
726.298,2.177
726.559,2.217
726.821,2.234
727.082,2.257
727.344,2.244
727.605,2.252
727.867,2.224
728.128,2.236
728.390,2.239
728.652,2.294
728.913,2.370
729.175,2.431
729.436,2.440
729.698,2.436
729.960,2.406
730.221,2.376
730.483,2.286
730.745,2.247
731.007,2.238
731.268,2.252
731.530,2.268
731.792,2.277
732.054,2.305
732.315,2.330
732.577,2.360
732.839,2.338
733.101,2.288
733.363,2.243
733.625,2.230
733.887,2.254
734.149,2.266
734.411,2.303
734.673,2.328
734.935,2.349
735.197,2.325
735.459,2.335
735.721,2.349
735.983,2.350
736.245,2.277
736.507,2.250
736.769,2.278
737.031,2.333
737.293,2.315
737.555,2.248
737.818,2.197
738.080,2.160
738.342,2.168
738.604,2.169
738.867,2.192
739.129,2.195
739.391,2.195
739.654,2.193
739.916,2.205
740.178,2.239
740.441,2.294
740.703,2.322
740.966,2.298
741.228,2.265
741.491,2.234
741.753,2.251
742.016,2.252
742.278,2.255
742.541,2.259
742.804,2.276
743.066,2.322
743.329,2.349
743.592,2.333
743.854,2.321
744.117,2.333
744.380,2.366
744.643,2.354
744.905,2.303
745.168,2.278
745.431,2.260
745.694,2.246
745.957,2.220
746.220,2.202
746.483,2.192
746.746,2.190
747.009,2.238
747.272,2.350
