Wavelength (nm),Intensity Source #63,,C:/Users/Brend/Desktop/MÃ s LED Spectras/Spectrometer Data.sp,,,Source #63,
379.792,2.163,,2018-06-13 14:59:42,,Integration Time,908 ms,
380.000,2.120,,Analyze Light,,Number of Scans to Average,25,
380.209,2.067,,,,Smoothing,1,
380.418,2.106
380.627,2.176
380.837,2.250
381.048,2.263
381.259,2.241
381.471,2.204
381.683,2.203
381.896,2.224
382.110,2.225
382.324,2.248
382.538,2.305
382.753,2.352
382.969,2.288
383.185,2.183
383.402,2.100
383.619,2.112
383.837,2.168
384.055,2.257
384.274,2.333
384.493,2.349
384.712,2.323
384.932,2.294
385.153,2.284
385.374,2.278
385.596,2.276
385.818,2.325
386.040,2.392
386.263,2.443
386.487,2.422
386.710,2.367
386.935,2.280
387.159,2.226
387.385,2.176
387.610,2.150
387.836,2.133
388.063,2.136
388.289,2.151
388.517,2.150
388.744,2.134
388.972,2.159
389.201,2.180
389.430,2.199
389.659,2.189
389.889,2.198
390.119,2.213
390.349,2.217
390.580,2.227
390.811,2.220
391.042,2.211
391.274,2.204
391.507,2.205
391.739,2.177
391.972,2.129
392.205,2.123
392.439,2.161
392.673,2.192
392.907,2.207
393.142,2.222
393.377,2.245
393.612,2.267
393.848,2.259
394.084,2.243
394.320,2.210
394.557,2.216
394.794,2.228
395.031,2.270
395.269,2.295
395.507,2.311
395.745,2.290
395.983,2.265
396.222,2.273
396.461,2.328
396.700,2.415
396.940,2.454
397.180,2.441
397.420,2.369
397.660,2.301
397.901,2.245
398.142,2.238
398.383,2.203
398.625,2.163
398.866,2.162
399.108,2.261
399.351,2.413
399.593,2.441
399.836,2.384
400.079,2.272
400.322,2.206
400.566,2.151
400.809,2.112
401.053,2.112
401.298,2.126
401.542,2.171
401.787,2.219
402.031,2.268
402.277,2.285
402.522,2.279
402.767,2.277
403.013,2.246
403.259,2.224
403.505,2.200
403.752,2.188
403.998,2.181
404.245,2.240
404.492,2.330
404.739,2.392
404.986,2.404
405.234,2.400
405.482,2.392
405.730,2.348
405.978,2.323
406.226,2.266
406.475,2.193
406.723,2.130
406.972,2.140
407.221,2.184
407.470,2.209
407.720,2.213
407.969,2.164
408.219,2.157
408.469,2.178
408.719,2.232
408.969,2.242
409.219,2.248
409.470,2.263
409.720,2.287
409.971,2.299
410.222,2.324
410.473,2.319
410.724,2.295
410.976,2.296
411.227,2.323
411.479,2.334
411.731,2.307
411.983,2.260
412.235,2.226
412.487,2.194
412.740,2.199
412.992,2.216
413.245,2.234
413.497,2.222
413.750,2.203
414.003,2.161
414.257,2.103
414.510,2.070
414.763,2.096
415.017,2.145
415.270,2.171
415.524,2.165
415.778,2.156
416.032,2.158
416.286,2.197
416.540,2.235
416.794,2.271
417.049,2.266
417.303,2.267
417.558,2.290
417.812,2.308
418.067,2.313
418.322,2.294
418.577,2.280
418.832,2.253
419.088,2.199
419.343,2.180
419.598,2.150
419.854,2.167
420.109,2.190
420.365,2.263
420.621,2.305
420.876,2.345
421.132,2.348
421.388,2.319
421.645,2.272
421.901,2.252
422.157,2.259
422.413,2.260
422.670,2.238
422.926,2.211
423.183,2.154
423.439,2.149
423.696,2.193
423.953,2.334
424.210,2.439
424.467,2.446
424.724,2.376
424.981,2.270
425.238,2.235
425.495,2.254
425.753,2.293
426.010,2.307
426.267,2.277
426.525,2.280
426.782,2.292
427.040,2.314
427.298,2.344
427.555,2.375
427.813,2.384
428.071,2.372
428.329,2.359
428.587,2.337
428.845,2.331
429.103,2.318
429.361,2.307
429.619,2.269
429.878,2.248
430.136,2.251
430.394,2.253
430.653,2.310
430.911,2.416
431.170,2.532
431.428,2.553
431.687,2.503
431.946,2.430
432.204,2.387
432.463,2.390
432.722,2.368
432.981,2.336
433.240,2.310
433.499,2.337
433.758,2.406
434.017,2.408
434.276,2.354
434.535,2.239
434.794,2.143
435.053,2.114
435.312,2.126
435.572,2.148
435.831,2.150
436.090,2.187
436.350,2.230
436.609,2.271
436.869,2.250
437.128,2.217
437.388,2.161
437.647,2.150
437.907,2.172
438.166,2.195
438.426,2.167
438.686,2.132
438.946,2.110
439.205,2.135
439.465,2.164
439.725,2.232
439.985,2.284
440.245,2.282
440.505,2.255
440.765,2.228
441.025,2.211
441.285,2.226
441.545,2.261
441.805,2.303
442.065,2.259
442.325,2.173
442.585,2.120
442.846,2.111
443.106,2.164
443.366,2.223
443.626,2.267
443.887,2.275
444.147,2.232
444.407,2.211
444.668,2.180
444.928,2.172
445.189,2.176
445.449,2.198
445.710,2.215
445.970,2.220
446.231,2.212
446.491,2.238
446.752,2.224
447.012,2.226
447.273,2.264
447.534,2.325
447.794,2.309
448.055,2.216
448.316,2.158
448.577,2.171
448.837,2.211
449.098,2.263
449.359,2.305
449.620,2.307
449.881,2.259
450.142,2.199
450.403,2.199
450.664,2.228
450.924,2.244
451.185,2.233
451.446,2.235
451.707,2.250
451.969,2.296
452.230,2.319
452.491,2.366
452.752,2.361
453.013,2.333
453.274,2.304
453.535,2.297
453.796,2.270
454.058,2.206
454.319,2.172
454.580,2.203
454.841,2.277
455.103,2.280
455.364,2.225
455.625,2.169
455.887,2.158
456.148,2.183
456.409,2.230
456.671,2.282
456.932,2.313
457.194,2.300
457.455,2.285
457.716,2.282
457.978,2.313
458.239,2.326
458.501,2.332
458.763,2.285
459.024,2.244
459.286,2.225
459.547,2.242
459.809,2.235
460.071,2.252
460.332,2.295
460.594,2.345
460.856,2.349
461.117,2.287
461.379,2.276
461.641,2.289
461.903,2.325
462.164,2.328
462.426,2.328
462.688,2.330
462.950,2.316
463.212,2.323
463.474,2.291
463.736,2.265
463.998,2.267
464.260,2.344
464.522,2.450
464.784,2.466
465.046,2.386
465.308,2.303
465.570,2.280
465.832,2.321
466.094,2.360
466.356,2.408
466.618,2.456
466.880,2.442
467.142,2.365
467.405,2.296
467.667,2.316
467.929,2.387
468.191,2.461
468.454,2.492
468.716,2.529
468.978,2.536
469.241,2.479
469.503,2.418
469.765,2.376
470.028,2.398
470.290,2.358
470.552,2.281
470.815,2.208
471.077,2.191
471.340,2.222
471.602,2.237
471.865,2.203
472.128,2.129
472.390,2.083
472.653,2.075
472.915,2.091
473.178,2.104
473.441,2.141
473.703,2.195
473.966,2.278
474.229,2.343
474.492,2.370
474.755,2.303
475.017,2.260
475.280,2.238
475.543,2.284
475.806,2.261
476.069,2.216
476.332,2.169
476.595,2.180
476.858,2.193
477.121,2.167
477.384,2.125
477.647,2.128
477.910,2.164
478.173,2.194
478.436,2.173
478.699,2.158
478.962,2.142
479.226,2.188
479.489,2.225
479.752,2.282
480.015,2.329
480.279,2.397
480.542,2.446
480.805,2.443
481.069,2.390
481.332,2.335
481.595,2.307
481.859,2.351
482.122,2.388
482.386,2.380
482.649,2.328
482.913,2.271
483.177,2.218
483.440,2.128
483.704,2.061
483.967,2.075
484.231,2.151
484.495,2.246
484.759,2.307
485.022,2.313
485.286,2.302
485.550,2.280
485.814,2.214
486.078,2.133
486.342,2.087
486.606,2.143
486.869,2.210
487.133,2.257
487.397,2.303
487.662,2.338
487.926,2.339
488.190,2.325
488.454,2.318
488.718,2.329
488.982,2.300
489.246,2.286
489.511,2.266
489.775,2.266
490.039,2.275
490.304,2.266
490.568,2.236
490.832,2.205
491.097,2.230
491.361,2.273
491.626,2.306
491.890,2.309
492.155,2.317
492.419,2.329
492.684,2.314
492.949,2.307
493.213,2.331
493.478,2.405
493.743,2.419
494.008,2.332
494.272,2.233
494.537,2.212
494.802,2.262
495.067,2.336
495.332,2.397
495.597,2.446
495.862,2.442
496.127,2.428
496.392,2.384
496.657,2.316
496.922,2.255
497.187,2.236
497.452,2.270
497.718,2.348
497.983,2.394
498.248,2.403
498.513,2.348
498.779,2.362
499.044,2.415
499.310,2.429
499.575,2.378
499.841,2.332
500.106,2.328
500.372,2.297
500.637,2.293
500.903,2.358
501.168,2.437
501.434,2.438
501.700,2.350
501.966,2.297
502.231,2.263
502.497,2.254
502.763,2.210
503.029,2.170
503.295,2.163
503.561,2.169
503.827,2.211
504.093,2.241
504.359,2.267
504.625,2.279
504.891,2.256
505.157,2.257
505.423,2.209
505.690,2.151
505.956,2.092
506.222,2.111
506.489,2.221
506.755,2.350
507.021,2.432
507.288,2.468
507.554,2.443
507.821,2.423
508.087,2.396
508.354,2.446
508.621,2.477
508.887,2.465
509.154,2.422
509.421,2.398
509.687,2.362
509.954,2.320
510.221,2.281
510.488,2.323
510.755,2.380
511.022,2.446
511.289,2.416
511.556,2.373
511.823,2.337
512.090,2.405
512.357,2.431
512.624,2.446
512.891,2.410
513.159,2.386
513.426,2.367
513.693,2.380
513.960,2.417
514.228,2.418
514.495,2.400
514.763,2.378
515.030,2.366
515.298,2.326
515.565,2.315
515.833,2.321
516.100,2.331
516.368,2.331
516.636,2.320
516.904,2.344
517.171,2.328
517.439,2.327
517.707,2.291
517.975,2.290
518.243,2.310
518.511,2.335
518.779,2.283
519.047,2.265
519.315,2.263
519.583,2.275
519.851,2.214
520.119,2.167
520.387,2.157
520.656,2.175
520.924,2.201
521.192,2.239
521.461,2.277
521.729,2.315
521.997,2.344
522.266,2.355
522.534,2.346
522.803,2.346
523.071,2.330
523.340,2.274
523.609,2.204
523.877,2.163
524.146,2.168
524.415,2.199
524.684,2.239
524.952,2.236
525.221,2.220
525.490,2.245
525.759,2.298
526.028,2.330
526.297,2.270
526.566,2.216
526.835,2.183
527.104,2.201
527.373,2.235
527.642,2.249
527.912,2.220
528.181,2.177
528.450,2.173
528.719,2.214
528.989,2.296
529.258,2.373
529.528,2.398
529.797,2.357
530.067,2.332
530.336,2.303
530.606,2.281
530.875,2.221
531.145,2.199
531.414,2.209
531.684,2.263
531.954,2.281
532.224,2.262
532.493,2.171
532.763,2.118
533.033,2.124
533.303,2.178
533.573,2.233
533.843,2.204
534.113,2.177
534.383,2.123
534.653,2.128
534.923,2.158
535.193,2.206
535.463,2.275
535.733,2.326
536.004,2.361
536.274,2.372
536.544,2.334
536.814,2.275
537.085,2.205
537.355,2.212
537.626,2.285
537.896,2.350
538.166,2.364
538.437,2.331
538.707,2.289
538.978,2.275
539.249,2.311
539.519,2.342
539.790,2.311
540.061,2.269
540.331,2.285
540.602,2.368
540.873,2.430
541.144,2.452
541.414,2.436
541.685,2.419
541.956,2.394
542.227,2.377
542.498,2.339
542.769,2.318
543.040,2.339
543.311,2.422
543.582,2.513
543.853,2.556
544.124,2.566
544.396,2.570
544.667,2.569
544.938,2.556
545.209,2.430
545.480,2.348
545.752,2.295
546.023,2.362
546.294,2.366
546.566,2.336
546.837,2.275
547.109,2.253
547.380,2.249
547.652,2.241
547.923,2.239
548.195,2.283
548.466,2.371
548.738,2.473
549.009,2.487
549.281,2.448
549.553,2.359
549.824,2.255
550.096,2.183
550.368,2.164
550.640,2.196
550.911,2.248
551.183,2.333
551.455,2.462
551.727,2.552
551.999,2.534
552.271,2.434
552.543,2.347
552.815,2.306
553.087,2.347
553.359,2.406
553.631,2.442
553.903,2.433
554.175,2.436
554.447,2.474
554.719,2.499
554.991,2.498
555.263,2.477
555.535,2.444
555.808,2.406
556.080,2.358
556.352,2.332
556.624,2.324
556.897,2.315
557.169,2.311
557.441,2.296
557.714,2.276
557.986,2.277
558.258,2.256
558.531,2.294
558.803,2.323
559.076,2.365
559.348,2.343
559.621,2.301
559.893,2.297
560.166,2.313
560.438,2.322
560.711,2.292
560.983,2.268
561.256,2.266
561.528,2.300
561.801,2.348
562.074,2.413
562.346,2.476
562.619,2.535
562.892,2.532
563.164,2.492
563.437,2.465
563.710,2.456
563.983,2.414
564.255,2.345
564.528,2.343
564.801,2.417
565.074,2.483
565.346,2.463
565.619,2.432
565.892,2.451
566.165,2.455
566.438,2.393
566.711,2.312
566.984,2.291
567.257,2.309
567.529,2.355
567.802,2.432
568.075,2.521
568.348,2.529
568.621,2.510
568.894,2.463
569.167,2.448
569.440,2.417
569.713,2.354
569.986,2.327
570.259,2.298
570.532,2.337
570.805,2.370
571.078,2.398
571.351,2.421
571.625,2.441
571.898,2.426
572.171,2.368
572.444,2.318
572.717,2.345
572.990,2.426
573.263,2.435
573.536,2.389
573.809,2.295
574.083,2.264
574.356,2.291
574.629,2.398
574.902,2.467
575.175,2.481
575.448,2.411
575.721,2.365
575.995,2.348
576.268,2.357
576.541,2.405
576.814,2.458
577.087,2.511
577.361,2.527
577.634,2.527
577.907,2.472
578.180,2.395
578.453,2.344
578.727,2.365
579.000,2.405
579.273,2.454
579.546,2.523
579.820,2.610
580.093,2.634
580.366,2.597
580.639,2.523
580.913,2.496
581.186,2.488
581.459,2.505
581.732,2.469
582.005,2.451
582.279,2.421
582.552,2.444
582.825,2.469
583.098,2.500
583.372,2.532
583.645,2.558
583.918,2.601
584.191,2.622
584.464,2.623
584.738,2.610
585.011,2.606
585.284,2.601
585.557,2.590
585.831,2.604
586.104,2.677
586.377,2.798
586.650,2.874
586.923,2.872
587.196,2.823
587.470,2.745
587.743,2.700
588.016,2.665
588.289,2.686
588.562,2.742
588.835,2.767
589.109,2.744
589.382,2.687
589.655,2.643
589.928,2.627
590.201,2.612
590.474,2.663
590.747,2.738
591.020,2.832
591.293,2.876
591.567,2.885
591.840,2.845
592.113,2.802
592.386,2.736
592.659,2.687
592.932,2.670
593.205,2.713
593.478,2.755
593.751,2.752
594.024,2.737
594.297,2.711
594.570,2.712
594.843,2.753
595.116,2.822
595.389,2.878
595.662,2.875
595.934,2.885
596.207,2.927
596.480,2.992
596.753,3.055
597.026,3.064
597.299,3.060
597.572,3.043
597.844,3.028
598.117,2.972
598.390,2.921
598.663,2.895
598.936,2.928
599.208,2.973
599.481,3.012
599.754,3.042
600.026,2.999
600.299,2.957
600.572,2.928
600.844,2.938
601.117,2.925
601.390,2.921
601.662,2.939
601.935,2.963
602.207,2.986
602.480,3.044
602.752,3.106
603.025,3.110
603.297,3.111
603.570,3.170
603.842,3.312
604.115,3.408
604.387,3.475
604.660,3.463
604.932,3.470
605.204,3.514
605.477,3.618
605.749,3.761
606.021,3.874
606.294,3.962
606.566,3.981
606.838,4.053
607.110,4.178
607.383,4.372
607.655,4.558
607.927,4.750
608.199,4.935
608.471,5.075
608.743,5.130
609.015,5.147
609.287,5.164
609.559,5.208
609.831,5.280
610.103,5.332
610.375,5.354
610.647,5.305
610.919,5.203
611.191,5.096
611.463,5.018
611.735,4.953
612.007,4.858
612.278,4.771
612.550,4.727
612.822,4.751
613.094,4.807
613.365,4.819
613.637,4.864
613.909,4.879
614.180,4.925
614.452,4.910
614.723,4.876
614.995,4.839
615.266,4.848
615.538,4.935
615.809,5.046
616.081,5.099
616.352,5.097
616.623,5.087
616.895,5.125
617.166,5.160
617.437,5.197
617.709,5.253
617.980,5.350
618.251,5.473
618.522,5.598
618.793,5.746
619.065,5.935
619.336,6.021
619.607,6.032
619.878,6.037
620.149,6.164
620.420,6.290
620.691,6.358
620.962,6.407
621.232,6.518
621.503,6.586
621.774,6.647
622.045,6.695
622.316,6.849
622.586,7.030
622.857,7.250
623.128,7.399
623.398,7.519
623.669,7.598
623.940,7.688
624.210,7.766
624.481,7.928
624.751,8.093
625.021,8.249
625.292,8.327
625.562,8.458
625.833,8.595
626.103,8.741
626.373,8.848
626.643,9.011
626.914,9.204
627.184,9.429
627.454,9.628
627.724,9.799
627.994,9.971
628.264,10.151
628.534,10.307
628.804,10.440
629.074,10.609
629.344,10.818
629.614,11.034
629.884,11.205
630.154,11.361
630.424,11.507
630.693,11.638
630.963,11.754
631.233,11.873
631.502,12.064
631.772,12.341
632.041,12.639
632.311,12.880
632.581,13.066
632.850,13.237
633.119,13.355
633.389,13.468
633.658,13.616
633.928,13.899
634.197,14.250
634.466,14.628
634.735,14.982
635.004,15.248
635.274,15.498
635.543,15.741
635.812,16.036
636.081,16.347
636.350,16.678
636.619,17.046
636.888,17.423
637.157,17.813
637.426,18.229
637.694,18.664
637.963,19.084
638.232,19.507
638.501,19.936
638.769,20.416
639.038,20.907
639.307,21.424
639.575,21.937
639.844,22.379
640.112,22.799
640.381,23.210
640.649,23.703
640.917,24.272
641.186,24.867
641.454,25.507
641.722,26.136
641.991,26.796
642.259,27.424
642.527,28.081
642.795,28.806
643.063,29.546
643.331,30.323
643.599,31.101
643.867,32.003
644.135,32.910
644.403,33.866
644.671,34.751
644.939,35.669
645.206,36.564
645.474,37.511
645.742,38.448
646.009,39.366
646.277,40.323
646.545,41.320
646.812,42.404
647.080,43.498
647.347,44.576
647.615,45.603
647.882,46.589
648.149,47.591
648.417,48.625
648.684,49.719
648.951,50.875
649.219,52.062
649.486,53.213
649.753,54.338
650.020,55.425
650.287,56.487
650.554,57.489
650.821,58.471
651.088,59.422
651.355,60.434
651.622,61.390
651.889,62.382
652.155,63.318
652.422,64.288
652.689,65.275
652.956,66.236
653.222,67.205
653.489,68.218
653.755,69.204
654.022,70.131
654.288,71.008
654.555,72.005
654.821,73.159
655.088,74.454
655.354,75.831
655.620,77.306
655.887,78.801
656.153,80.317
656.419,81.784
656.685,83.180
656.951,84.466
657.217,85.611
657.483,86.614
657.749,87.477
658.015,88.211
658.281,88.807
658.547,89.228
658.813,89.479
659.079,89.568
659.345,89.516
659.610,89.330
659.876,89.002
660.142,88.547
660.407,87.931
660.673,87.133
660.939,86.067
661.204,84.607
661.470,82.691
661.735,80.356
662.000,77.751
662.266,74.929
662.531,71.937
662.796,68.814
663.062,65.614
663.327,62.385
663.592,59.221
663.857,56.159
664.122,53.217
664.388,50.366
664.653,47.664
664.918,45.173
665.183,42.875
665.448,40.794
665.712,38.878
665.977,37.124
666.242,35.478
666.507,33.856
666.772,32.355
667.037,30.975
667.301,29.796
667.566,28.691
667.831,27.688
668.095,26.725
668.360,25.825
668.624,24.902
668.889,24.101
669.153,23.329
669.418,22.633
669.682,21.938
669.946,21.311
670.211,20.749
670.475,20.169
670.739,19.587
671.004,18.998
671.268,18.472
671.532,18.002
671.796,17.348
672.060,16.650
672.324,15.895
672.588,15.331
672.852,14.818
673.116,14.452
673.380,14.119
673.644,13.532
673.908,12.801
674.172,12.060
674.436,11.594
674.700,11.178
674.963,10.770
675.227,10.353
675.491,9.883
675.754,9.425
676.018,8.988
676.282,8.646
676.545,8.308
676.809,7.932
677.072,7.548
677.336,7.189
677.599,6.915
677.863,6.649
678.126,6.416
678.389,6.239
678.653,6.078
678.916,5.869
679.179,5.568
679.442,5.298
679.706,5.116
679.969,4.959
680.232,4.814
680.495,4.689
680.758,4.595
681.021,4.451
681.284,4.248
681.547,4.045
681.810,3.933
682.073,3.916
682.336,3.894
682.599,3.809
682.862,3.685
683.125,3.604
683.388,3.575
683.651,3.531
683.913,3.463
684.176,3.331
684.439,3.179
684.702,3.017
684.964,2.917
685.227,2.885
685.490,2.915
685.752,2.994
686.015,3.011
686.277,2.966
686.540,2.868
686.802,2.772
687.065,2.739
687.327,2.733
687.590,2.743
687.852,2.693
688.115,2.600
688.377,2.535
688.639,2.514
688.902,2.520
689.164,2.543
689.426,2.601
689.689,2.659
689.951,2.659
690.213,2.629
690.475,2.598
690.737,2.580
691.000,2.539
691.262,2.506
691.524,2.515
691.786,2.565
692.048,2.617
692.310,2.604
692.572,2.507
692.834,2.393
693.096,2.346
693.358,2.400
693.620,2.495
693.882,2.576
694.144,2.592
694.406,2.541
694.668,2.484
694.930,2.430
695.192,2.401
695.453,2.402
695.715,2.419
695.977,2.417
696.239,2.367
696.501,2.338
696.762,2.360
697.024,2.391
697.286,2.362
697.548,2.322
697.809,2.295
698.071,2.287
698.333,2.278
698.594,2.272
698.856,2.309
699.118,2.342
699.379,2.371
699.641,2.403
699.902,2.447
700.164,2.457
700.426,2.429
700.687,2.369
700.949,2.351
701.210,2.341
701.472,2.327
701.733,2.288
701.995,2.281
702.256,2.284
702.518,2.291
702.779,2.278
703.041,2.332
703.302,2.414
703.563,2.437
703.825,2.389
704.086,2.333
704.348,2.324
704.609,2.350
704.871,2.410
705.132,2.481
705.393,2.468
705.655,2.424
705.916,2.398
706.177,2.420
706.439,2.448
706.700,2.463
706.961,2.473
707.223,2.489
707.484,2.429
707.745,2.374
708.007,2.320
708.268,2.294
708.529,2.270
708.790,2.204
709.052,2.172
709.313,2.194
709.574,2.256
709.835,2.309
710.097,2.302
710.358,2.232
710.619,2.164
710.881,2.103
711.142,2.090
711.403,2.068
711.664,2.077
711.926,2.045
712.187,2.062
712.448,2.089
712.709,2.162
712.970,2.222
713.232,2.264
713.493,2.291
713.754,2.298
714.015,2.308
714.277,2.344
714.538,2.392
714.799,2.472
715.060,2.507
715.322,2.511
715.583,2.454
715.844,2.396
716.105,2.325
716.367,2.271
716.628,2.254
716.889,2.264
717.150,2.252
717.411,2.216
717.673,2.222
717.934,2.265
718.195,2.314
718.457,2.297
718.718,2.230
718.979,2.184
719.240,2.191
719.502,2.247
719.763,2.297
720.024,2.326
720.286,2.338
720.547,2.306
720.808,2.262
721.069,2.232
721.331,2.258
721.592,2.329
721.853,2.369
722.115,2.385
722.376,2.389
722.638,2.378
722.899,2.369
723.160,2.319
723.422,2.276
723.683,2.239
723.944,2.260
724.206,2.279
724.467,2.285
724.729,2.267
724.990,2.295
725.252,2.340
725.513,2.323
725.775,2.247
726.036,2.174
726.298,2.158
726.559,2.198
726.821,2.213
727.082,2.229
727.344,2.214
727.605,2.222
727.867,2.200
728.128,2.215
728.390,2.220
728.652,2.271
728.913,2.345
729.175,2.405
729.436,2.416
729.698,2.416
729.960,2.389
730.221,2.357
730.483,2.267
730.745,2.232
731.007,2.225
731.268,2.237
731.530,2.248
731.792,2.255
732.054,2.289
732.315,2.316
732.577,2.343
732.839,2.314
733.101,2.262
733.363,2.219
733.625,2.204
733.887,2.223
734.149,2.228
734.411,2.266
734.673,2.294
734.935,2.318
735.197,2.296
735.459,2.308
735.721,2.323
735.983,2.324
736.245,2.251
736.507,2.225
736.769,2.255
737.031,2.314
737.293,2.302
737.555,2.239
737.818,2.191
738.080,2.158
738.342,2.165
738.604,2.164
738.867,2.179
739.129,2.173
739.391,2.167
739.654,2.164
739.916,2.177
740.178,2.215
740.441,2.275
740.703,2.308
740.966,2.288
741.228,2.247
741.491,2.210
741.753,2.218
742.016,2.225
742.278,2.236
742.541,2.244
742.804,2.256
743.066,2.296
743.329,2.321
743.592,2.305
743.854,2.294
744.117,2.308
744.380,2.342
744.643,2.328
744.905,2.281
745.168,2.257
745.431,2.244
745.694,2.226
745.957,2.197
746.220,2.177
746.483,2.168
746.746,2.171
747.009,2.217
