Wavelength (nm),Intensity Source #40,,C:/Users/Brend/Desktop/MÃ s LED Spectras/Spectrometer Data.sp,,,Source #40,
379.792,2.140,,2018-06-13 14:18:49,,Integration Time,886 ms,
380.000,2.097,,Analyze Light,,Number of Scans to Average,25,
380.209,2.045,,,,Smoothing,1,
380.418,2.083
380.627,2.154
380.837,2.224
381.048,2.239
381.259,2.219
381.471,2.188
381.683,2.185
381.896,2.206
382.110,2.204
382.324,2.230
382.538,2.284
382.753,2.325
382.969,2.260
383.185,2.160
383.402,2.084
383.619,2.099
383.837,2.153
384.055,2.239
384.274,2.309
384.493,2.321
384.712,2.291
384.932,2.262
385.153,2.255
385.374,2.255
385.596,2.260
385.818,2.309
386.040,2.370
386.263,2.413
386.487,2.392
386.710,2.339
386.935,2.254
387.159,2.200
387.385,2.149
387.610,2.123
387.836,2.107
388.063,2.114
388.289,2.134
388.517,2.139
388.744,2.125
388.972,2.151
389.201,2.168
389.430,2.182
389.659,2.166
389.889,2.173
390.119,2.191
390.349,2.200
390.580,2.215
390.811,2.214
391.042,2.208
391.274,2.202
391.507,2.203
391.739,2.173
391.972,2.123
392.205,2.113
392.439,2.148
392.673,2.181
392.907,2.195
393.142,2.211
393.377,2.236
393.612,2.255
393.848,2.243
394.084,2.227
394.320,2.201
394.557,2.212
394.794,2.222
395.031,2.256
395.269,2.279
395.507,2.297
395.745,2.280
395.983,2.257
396.222,2.263
396.461,2.318
396.700,2.400
396.940,2.435
397.180,2.419
397.420,2.344
397.660,2.276
397.901,2.216
398.142,2.209
398.383,2.178
398.625,2.143
398.866,2.143
399.108,2.239
399.351,2.388
399.593,2.416
399.836,2.361
400.079,2.253
400.322,2.189
400.566,2.139
400.809,2.104
401.053,2.108
401.298,2.120
401.542,2.163
401.787,2.207
402.031,2.255
402.277,2.269
402.522,2.259
402.767,2.257
403.013,2.229
403.259,2.213
403.505,2.190
403.752,2.176
403.998,2.167
404.245,2.223
404.492,2.311
404.739,2.371
404.986,2.385
405.234,2.383
405.482,2.375
405.730,2.330
405.978,2.303
406.226,2.247
406.475,2.177
406.723,2.114
406.972,2.121
407.221,2.158
407.470,2.178
407.720,2.180
407.969,2.135
408.219,2.134
408.469,2.159
408.719,2.213
408.969,2.218
409.219,2.222
409.470,2.235
409.720,2.258
409.971,2.271
410.222,2.303
410.473,2.304
410.724,2.282
410.976,2.283
411.227,2.309
411.479,2.319
411.731,2.290
411.983,2.242
412.235,2.212
412.487,2.183
412.740,2.191
412.992,2.207
413.245,2.224
413.497,2.210
413.750,2.191
414.003,2.151
414.257,2.098
414.510,2.069
414.763,2.094
415.017,2.140
415.270,2.165
415.524,2.161
415.778,2.154
416.032,2.160
416.286,2.199
416.540,2.235
416.794,2.266
417.049,2.255
417.303,2.251
417.558,2.270
417.812,2.289
418.067,2.298
418.322,2.281
418.577,2.266
418.832,2.234
419.088,2.183
419.343,2.164
419.598,2.137
419.854,2.151
420.109,2.176
420.365,2.253
420.621,2.296
420.876,2.332
421.132,2.327
421.388,2.292
421.645,2.243
421.901,2.222
422.157,2.234
422.413,2.241
422.670,2.225
422.926,2.198
423.183,2.139
423.439,2.132
423.696,2.171
423.953,2.300
424.210,2.399
424.467,2.407
424.724,2.346
424.981,2.247
425.238,2.219
425.495,2.243
425.753,2.280
426.010,2.291
426.267,2.259
426.525,2.268
426.782,2.286
427.040,2.310
427.298,2.336
427.555,2.363
427.813,2.371
428.071,2.361
428.329,2.350
428.587,2.327
428.845,2.321
429.103,2.302
429.361,2.286
429.619,2.245
429.878,2.225
430.136,2.232
430.394,2.236
430.653,2.294
430.911,2.397
431.170,2.512
431.428,2.533
431.687,2.483
431.946,2.411
432.204,2.368
432.463,2.375
432.722,2.355
432.981,2.325
433.240,2.299
433.499,2.326
433.758,2.395
434.017,2.399
434.276,2.345
434.535,2.231
434.794,2.138
435.053,2.112
435.312,2.126
435.572,2.145
435.831,2.148
436.090,2.182
436.350,2.220
436.609,2.257
436.869,2.238
437.128,2.208
437.388,2.152
437.647,2.135
437.907,2.152
438.166,2.175
438.426,2.148
438.686,2.115
438.946,2.093
439.205,2.119
439.465,2.150
439.725,2.223
439.985,2.275
440.245,2.275
440.505,2.251
440.765,2.230
441.025,2.211
441.285,2.221
441.545,2.251
441.805,2.290
442.065,2.245
442.325,2.160
442.585,2.109
442.846,2.104
443.106,2.159
443.366,2.216
443.626,2.253
443.887,2.255
444.147,2.211
444.407,2.191
444.668,2.163
444.928,2.154
445.189,2.157
445.449,2.179
445.710,2.193
445.970,2.197
446.231,2.192
446.491,2.224
446.752,2.216
447.012,2.224
447.273,2.266
447.534,2.322
447.794,2.300
448.055,2.202
448.316,2.141
448.577,2.151
448.837,2.192
449.098,2.248
449.359,2.293
449.620,2.297
449.881,2.252
450.142,2.195
450.403,2.193
450.664,2.217
450.924,2.230
451.185,2.219
451.446,2.220
451.707,2.236
451.969,2.281
452.230,2.305
452.491,2.349
452.752,2.342
453.013,2.313
453.274,2.286
453.535,2.281
453.796,2.252
454.058,2.190
454.319,2.157
454.580,2.192
454.841,2.266
455.103,2.272
455.364,2.216
455.625,2.158
455.887,2.144
456.148,2.170
456.409,2.219
456.671,2.273
456.932,2.302
457.194,2.288
457.455,2.268
457.716,2.261
457.978,2.287
458.239,2.301
458.501,2.308
458.763,2.265
459.024,2.226
459.286,2.210
459.547,2.224
459.809,2.211
460.071,2.223
460.332,2.264
460.594,2.317
460.856,2.324
461.117,2.269
461.379,2.264
461.641,2.280
461.903,2.312
462.164,2.309
462.426,2.307
462.688,2.306
462.950,2.288
463.212,2.287
463.474,2.255
463.736,2.235
463.998,2.247
464.260,2.328
464.522,2.434
464.784,2.449
465.046,2.368
465.308,2.286
465.570,2.263
465.832,2.300
466.094,2.335
466.356,2.376
466.618,2.421
466.880,2.408
467.142,2.334
467.405,2.270
467.667,2.293
467.929,2.368
468.191,2.446
468.454,2.482
468.716,2.520
468.978,2.526
469.241,2.466
469.503,2.405
469.765,2.358
470.028,2.374
470.290,2.325
470.552,2.245
470.815,2.173
471.077,2.158
471.340,2.193
471.602,2.211
471.865,2.184
472.128,2.116
472.390,2.074
472.653,2.062
472.915,2.074
473.178,2.084
473.441,2.123
473.703,2.180
473.966,2.260
474.229,2.322
474.492,2.349
474.755,2.289
475.017,2.252
475.280,2.236
475.543,2.282
475.806,2.258
476.069,2.211
476.332,2.166
476.595,2.177
476.858,2.189
477.121,2.159
477.384,2.112
477.647,2.108
477.910,2.138
478.173,2.164
478.436,2.148
478.699,2.136
478.962,2.123
479.226,2.168
479.489,2.205
479.752,2.262
480.015,2.306
480.279,2.369
480.542,2.414
480.805,2.411
481.069,2.362
481.332,2.314
481.595,2.289
481.859,2.332
482.122,2.363
482.386,2.355
482.649,2.308
482.913,2.259
483.177,2.208
483.440,2.122
483.704,2.056
483.967,2.068
484.231,2.140
484.495,2.233
484.759,2.295
485.022,2.303
485.286,2.292
485.550,2.269
485.814,2.203
486.078,2.121
486.342,2.074
486.606,2.128
486.869,2.191
487.133,2.239
487.397,2.286
487.662,2.325
487.926,2.327
488.190,2.312
488.454,2.304
488.718,2.318
488.982,2.293
489.246,2.278
489.511,2.253
489.775,2.247
490.039,2.257
490.304,2.251
490.568,2.221
490.832,2.191
491.097,2.214
491.361,2.258
491.626,2.289
491.890,2.289
492.155,2.296
492.419,2.308
492.684,2.292
492.949,2.285
493.213,2.306
493.478,2.378
493.743,2.393
494.008,2.309
494.272,2.212
494.537,2.189
494.802,2.237
495.067,2.309
495.332,2.369
495.597,2.417
495.862,2.418
496.127,2.410
496.392,2.376
496.657,2.311
496.922,2.249
497.187,2.230
497.452,2.266
497.718,2.342
497.983,2.384
498.248,2.387
498.513,2.333
498.779,2.350
499.044,2.405
499.310,2.418
499.575,2.362
499.841,2.314
500.106,2.313
500.372,2.287
500.637,2.284
500.903,2.343
501.168,2.417
501.434,2.414
501.700,2.325
501.966,2.273
502.231,2.241
502.497,2.233
502.763,2.190
503.029,2.148
503.295,2.137
503.561,2.144
503.827,2.190
504.093,2.228
504.359,2.257
504.625,2.267
504.891,2.243
505.157,2.242
505.423,2.194
505.690,2.137
505.956,2.081
506.222,2.102
506.489,2.212
506.755,2.340
507.021,2.425
507.288,2.458
507.554,2.427
507.821,2.399
508.087,2.375
508.354,2.428
508.621,2.461
508.887,2.445
509.154,2.402
509.421,2.376
509.687,2.340
509.954,2.296
510.221,2.257
510.488,2.298
510.755,2.354
511.022,2.420
511.289,2.393
511.556,2.355
511.823,2.320
512.090,2.383
512.357,2.408
512.624,2.425
512.891,2.393
513.159,2.372
513.426,2.352
513.693,2.364
513.960,2.399
514.228,2.401
514.495,2.382
514.763,2.353
515.030,2.338
515.298,2.299
515.565,2.291
515.833,2.297
516.100,2.309
516.368,2.308
516.636,2.299
516.904,2.326
517.171,2.314
517.439,2.316
517.707,2.283
517.975,2.281
518.243,2.297
518.511,2.316
518.779,2.265
519.047,2.250
519.315,2.251
519.583,2.266
519.851,2.208
520.119,2.160
520.387,2.145
520.656,2.157
520.924,2.183
521.192,2.223
521.461,2.262
521.729,2.295
521.997,2.321
522.266,2.330
522.534,2.322
522.803,2.324
523.071,2.309
523.340,2.254
523.609,2.186
523.877,2.149
524.146,2.159
524.415,2.195
524.684,2.236
524.952,2.232
525.221,2.213
525.490,2.234
525.759,2.288
526.028,2.319
526.297,2.262
526.566,2.203
526.835,2.165
527.104,2.178
527.373,2.208
527.642,2.224
527.912,2.200
528.181,2.166
528.450,2.162
528.719,2.202
528.989,2.283
529.258,2.360
529.528,2.386
529.797,2.344
530.067,2.320
530.336,2.295
530.606,2.276
530.875,2.218
531.145,2.194
531.414,2.200
531.684,2.247
531.954,2.260
532.224,2.241
532.493,2.152
532.763,2.099
533.033,2.103
533.303,2.162
533.573,2.221
533.843,2.195
534.113,2.167
534.383,2.116
534.653,2.124
534.923,2.150
535.193,2.189
535.463,2.251
535.733,2.296
536.004,2.332
536.274,2.339
536.544,2.306
536.814,2.256
537.085,2.196
537.355,2.205
537.626,2.272
537.896,2.335
538.166,2.352
538.437,2.329
538.707,2.298
538.978,2.291
539.249,2.327
539.519,2.352
539.790,2.315
540.061,2.270
540.331,2.285
540.602,2.366
540.873,2.426
541.144,2.448
541.414,2.434
541.685,2.424
541.956,2.410
542.227,2.398
542.498,2.360
542.769,2.336
543.040,2.355
543.311,2.429
543.582,2.513
543.853,2.557
544.124,2.572
544.396,2.581
544.667,2.582
544.938,2.573
545.209,2.453
545.480,2.372
545.752,2.317
546.023,2.375
546.294,2.374
546.566,2.339
546.837,2.280
547.109,2.259
547.380,2.255
547.652,2.244
547.923,2.236
548.195,2.273
548.466,2.353
548.738,2.451
549.009,2.466
549.281,2.430
549.553,2.343
549.824,2.243
550.096,2.180
550.368,2.166
550.640,2.201
550.911,2.249
551.183,2.330
551.455,2.453
551.727,2.543
551.999,2.530
552.271,2.432
552.543,2.344
552.815,2.300
553.087,2.336
553.359,2.392
553.631,2.424
553.903,2.416
554.175,2.421
554.447,2.463
554.719,2.488
554.991,2.485
555.263,2.459
555.535,2.424
555.808,2.384
556.080,2.338
556.352,2.313
556.624,2.305
556.897,2.294
557.169,2.290
557.441,2.278
557.714,2.255
557.986,2.251
558.258,2.228
558.531,2.270
558.803,2.307
559.076,2.355
559.348,2.337
559.621,2.296
559.893,2.290
560.166,2.300
560.438,2.305
560.711,2.271
560.983,2.249
561.256,2.251
561.528,2.292
561.801,2.343
562.074,2.405
562.346,2.465
562.619,2.519
562.892,2.517
563.164,2.478
563.437,2.451
563.710,2.438
563.983,2.394
564.255,2.326
564.528,2.332
564.801,2.411
565.074,2.475
565.346,2.447
565.619,2.404
565.892,2.416
566.165,2.421
566.438,2.367
566.711,2.288
566.984,2.266
567.257,2.284
567.529,2.333
567.802,2.413
568.075,2.503
568.348,2.515
568.621,2.504
568.894,2.460
569.167,2.443
569.440,2.404
569.713,2.336
569.986,2.306
570.259,2.278
570.532,2.320
570.805,2.357
571.078,2.388
571.351,2.409
571.625,2.426
571.898,2.407
572.171,2.351
572.444,2.303
572.717,2.331
572.990,2.412
573.263,2.423
573.536,2.379
573.809,2.286
574.083,2.250
574.356,2.272
574.629,2.376
574.902,2.449
575.175,2.475
575.448,2.413
575.721,2.371
575.995,2.352
576.268,2.356
576.541,2.397
576.814,2.445
577.087,2.499
577.361,2.518
577.634,2.516
577.907,2.464
578.180,2.393
578.453,2.353
578.727,2.376
579.000,2.415
579.273,2.462
579.546,2.528
579.820,2.614
580.093,2.638
580.366,2.601
580.639,2.519
580.913,2.485
581.186,2.475
581.459,2.492
581.732,2.460
582.005,2.445
582.279,2.425
582.552,2.451
582.825,2.476
583.098,2.507
583.372,2.541
583.645,2.570
583.918,2.608
584.191,2.623
584.464,2.622
584.738,2.610
585.011,2.606
585.284,2.595
585.557,2.582
585.831,2.592
586.104,2.662
586.377,2.778
586.650,2.856
586.923,2.857
587.196,2.813
587.470,2.737
587.743,2.694
588.016,2.659
588.289,2.678
588.562,2.735
588.835,2.765
589.109,2.746
589.382,2.694
589.655,2.650
589.928,2.638
590.201,2.627
590.474,2.680
590.747,2.748
591.020,2.832
591.293,2.868
591.567,2.886
591.840,2.856
592.113,2.815
592.386,2.744
592.659,2.688
592.932,2.673
593.205,2.717
593.478,2.762
593.751,2.760
594.024,2.745
594.297,2.722
594.570,2.726
594.843,2.772
595.116,2.842
595.389,2.898
595.662,2.895
595.934,2.905
596.207,2.942
596.480,3.008
596.753,3.071
597.026,3.085
597.299,3.086
597.572,3.069
597.844,3.053
598.117,2.996
598.390,2.944
598.663,2.914
598.936,2.936
599.208,2.976
599.481,3.022
599.754,3.067
600.026,3.035
600.299,2.993
600.572,2.960
600.844,2.970
601.117,2.961
601.390,2.961
601.662,2.984
601.935,3.006
602.207,3.026
602.480,3.076
602.752,3.138
603.025,3.149
603.297,3.156
603.570,3.218
603.842,3.367
604.115,3.471
604.387,3.544
604.660,3.532
604.932,3.540
605.204,3.587
605.477,3.688
605.749,3.826
606.021,3.940
606.294,4.038
606.566,4.070
606.838,4.154
607.110,4.286
607.383,4.493
607.655,4.687
607.927,4.886
608.199,5.070
608.471,5.220
608.743,5.284
609.015,5.298
609.287,5.310
609.559,5.354
609.831,5.429
610.103,5.482
610.375,5.499
610.647,5.445
610.919,5.339
611.191,5.226
611.463,5.143
611.735,5.074
612.007,4.976
612.278,4.891
612.550,4.851
612.822,4.879
613.094,4.942
613.365,4.957
613.637,5.001
613.909,5.016
614.180,5.064
614.452,5.055
614.723,5.020
614.995,4.980
615.266,4.983
615.538,5.069
615.809,5.182
616.081,5.240
616.352,5.244
616.623,5.238
616.895,5.279
617.166,5.319
617.437,5.361
617.709,5.414
617.980,5.509
618.251,5.629
618.522,5.759
618.793,5.904
619.065,6.096
619.336,6.189
619.607,6.218
619.878,6.249
620.149,6.393
620.420,6.533
620.691,6.602
620.962,6.659
621.232,6.778
621.503,6.858
621.774,6.929
622.045,6.980
622.316,7.132
622.586,7.312
622.857,7.534
623.128,7.693
623.398,7.826
623.669,7.926
623.940,8.033
624.210,8.119
624.481,8.283
624.751,8.450
625.021,8.621
625.292,8.718
625.562,8.865
625.833,9.011
626.103,9.168
626.373,9.288
626.643,9.459
626.914,9.645
627.184,9.867
627.454,10.063
627.724,10.241
627.994,10.414
628.264,10.585
628.534,10.724
628.804,10.843
629.074,11.015
629.344,11.222
629.614,11.428
629.884,11.575
630.154,11.716
630.424,11.860
630.693,12.007
630.963,12.152
631.233,12.302
631.502,12.518
631.772,12.807
632.041,13.117
632.311,13.372
632.581,13.591
632.850,13.797
633.119,13.951
633.389,14.103
633.658,14.293
633.928,14.610
634.197,14.979
634.466,15.372
634.735,15.751
635.004,16.059
635.274,16.346
635.543,16.636
635.812,16.986
636.081,17.367
636.350,17.770
636.619,18.188
636.888,18.613
637.157,19.036
637.426,19.492
637.694,19.966
637.963,20.427
638.232,20.884
638.501,21.322
638.769,21.823
639.038,22.339
639.307,22.902
639.575,23.452
639.844,23.932
640.112,24.384
640.381,24.840
640.649,25.379
640.917,26.010
641.186,26.659
641.454,27.370
641.722,28.066
641.991,28.809
642.259,29.523
642.527,30.262
642.795,31.064
643.063,31.880
643.331,32.768
643.599,33.691
643.867,34.743
644.135,35.800
644.403,36.901
644.671,37.912
644.939,38.934
645.206,39.913
645.474,40.948
645.742,41.983
646.009,43.014
646.277,44.100
646.545,45.216
646.812,46.400
647.080,47.576
647.347,48.722
647.615,49.812
647.882,50.839
648.149,51.867
648.417,52.910
648.684,54.017
648.951,55.204
649.219,56.416
649.486,57.627
649.753,58.814
650.020,59.966
650.287,61.060
650.554,62.083
650.821,63.048
651.088,63.959
651.355,64.910
651.622,65.832
651.889,66.814
652.155,67.753
652.422,68.745
652.689,69.761
652.956,70.792
653.222,71.857
653.489,72.984
653.755,74.126
654.022,75.220
654.288,76.282
654.555,77.435
654.821,78.744
655.088,80.165
655.354,81.630
655.620,83.091
655.887,84.429
656.153,85.611
656.419,86.600
656.685,87.454
656.951,88.194
657.217,88.851
657.483,89.426
657.749,89.911
658.015,90.288
658.281,90.534
658.547,90.600
658.813,90.498
659.079,90.236
659.345,89.837
659.610,89.269
659.876,88.526
660.142,87.581
660.407,86.369
660.673,84.735
660.939,82.589
661.204,79.943
661.470,76.973
661.735,73.841
662.000,70.649
662.266,67.386
662.531,64.059
662.796,60.742
663.062,57.497
663.327,54.373
663.592,51.429
663.857,48.661
664.122,46.088
664.388,43.662
664.653,41.443
664.918,39.425
665.183,37.569
665.448,35.905
665.712,34.390
665.977,33.025
666.242,31.728
666.507,30.418
666.772,29.191
667.037,28.035
667.301,27.035
667.566,26.084
667.831,25.197
668.095,24.359
668.360,23.577
668.624,22.761
668.889,22.022
669.153,21.286
669.418,20.620
669.682,19.964
669.946,19.355
670.211,18.812
670.475,18.255
670.739,17.710
671.004,17.162
671.268,16.661
671.532,16.206
671.796,15.564
672.060,14.895
672.324,14.182
672.588,13.663
672.852,13.187
673.116,12.849
673.380,12.547
673.644,12.002
673.908,11.327
674.172,10.641
674.436,10.223
674.700,9.858
674.963,9.503
675.227,9.138
675.491,8.723
675.754,8.330
676.018,7.950
676.282,7.656
676.545,7.350
676.809,7.028
677.072,6.698
677.336,6.393
677.599,6.148
677.863,5.903
678.126,5.693
678.389,5.543
678.653,5.411
678.916,5.242
679.179,4.984
679.442,4.748
679.706,4.590
679.969,4.464
680.232,4.361
680.495,4.272
680.758,4.208
681.021,4.093
681.284,3.922
681.547,3.749
681.810,3.664
682.073,3.658
682.336,3.645
682.599,3.566
682.862,3.454
683.125,3.386
683.388,3.371
683.651,3.341
683.913,3.287
684.176,3.161
684.439,3.024
684.702,2.878
684.964,2.796
685.227,2.769
685.490,2.804
685.752,2.884
686.015,2.908
686.277,2.867
686.540,2.775
686.802,2.680
687.065,2.646
687.327,2.639
687.590,2.647
687.852,2.608
688.115,2.531
688.377,2.479
688.639,2.459
688.902,2.465
689.164,2.494
689.426,2.559
689.689,2.622
689.951,2.620
690.213,2.585
690.475,2.552
690.737,2.533
691.000,2.495
691.262,2.465
691.524,2.477
691.786,2.527
692.048,2.579
692.310,2.566
692.572,2.470
692.834,2.358
693.096,2.312
693.358,2.363
693.620,2.450
693.882,2.528
694.144,2.547
694.406,2.504
694.668,2.453
694.930,2.406
695.192,2.380
695.453,2.379
695.715,2.391
695.977,2.386
696.239,2.339
696.501,2.311
696.762,2.330
697.024,2.356
697.286,2.327
697.548,2.292
697.809,2.272
698.071,2.273
698.333,2.271
698.594,2.268
698.856,2.302
699.118,2.332
699.379,2.359
699.641,2.390
699.902,2.430
700.164,2.440
700.426,2.411
700.687,2.349
700.949,2.327
701.210,2.317
701.472,2.305
701.733,2.269
701.995,2.266
702.256,2.278
702.518,2.291
702.779,2.274
703.041,2.321
703.302,2.400
703.563,2.424
703.825,2.377
704.086,2.315
704.348,2.301
704.609,2.322
704.871,2.379
705.132,2.451
705.393,2.442
705.655,2.406
705.916,2.383
706.177,2.401
706.439,2.425
706.700,2.436
706.961,2.444
707.223,2.458
707.484,2.397
707.745,2.344
708.007,2.291
708.268,2.269
708.529,2.246
708.790,2.187
709.052,2.158
709.313,2.180
709.574,2.242
709.835,2.298
710.097,2.298
710.358,2.231
710.619,2.161
710.881,2.096
711.142,2.080
711.403,2.056
711.664,2.064
711.926,2.034
712.187,2.056
712.448,2.086
712.709,2.161
712.970,2.222
713.232,2.262
713.493,2.279
713.754,2.276
714.015,2.278
714.277,2.313
714.538,2.365
714.799,2.449
715.060,2.488
715.322,2.493
715.583,2.440
715.844,2.383
716.105,2.316
716.367,2.265
716.628,2.250
716.889,2.259
717.150,2.244
717.411,2.200
717.673,2.201
717.934,2.239
718.195,2.291
718.457,2.273
718.718,2.207
718.979,2.165
719.240,2.177
719.502,2.234
719.763,2.284
720.024,2.311
720.286,2.324
720.547,2.290
720.808,2.247
721.069,2.218
721.331,2.244
721.592,2.310
721.853,2.346
722.115,2.360
722.376,2.362
722.638,2.351
722.899,2.341
723.160,2.292
723.422,2.252
723.683,2.220
723.944,2.245
724.206,2.264
724.467,2.269
724.729,2.252
724.990,2.278
725.252,2.317
725.513,2.295
725.775,2.218
726.036,2.150
726.298,2.141
726.559,2.188
726.821,2.210
727.082,2.227
727.344,2.210
727.605,2.213
727.867,2.187
728.128,2.202
728.390,2.206
728.652,2.258
728.913,2.326
729.175,2.380
729.436,2.387
729.698,2.382
729.960,2.360
730.221,2.334
730.483,2.250
730.745,2.211
731.007,2.200
731.268,2.211
731.530,2.225
731.792,2.237
732.054,2.271
732.315,2.297
732.577,2.321
732.839,2.293
733.101,2.245
733.363,2.205
733.625,2.194
733.887,2.215
734.149,2.226
734.411,2.261
734.673,2.280
734.935,2.295
735.197,2.271
735.459,2.285
735.721,2.302
735.983,2.303
736.245,2.232
736.507,2.208
736.769,2.238
737.031,2.293
737.293,2.281
737.555,2.217
737.818,2.164
738.080,2.126
738.342,2.129
738.604,2.130
738.867,2.147
739.129,2.145
739.391,2.146
739.654,2.146
739.916,2.160
740.178,2.194
740.441,2.255
740.703,2.293
740.966,2.272
741.228,2.230
741.491,2.189
741.753,2.201
742.016,2.207
742.278,2.214
742.541,2.220
742.804,2.232
743.066,2.276
743.329,2.301
743.592,2.285
743.854,2.270
744.117,2.283
744.380,2.321
744.643,2.313
744.905,2.267
745.168,2.240
745.431,2.221
745.694,2.204
745.957,2.180
746.220,2.164
746.483,2.158
746.746,2.160
747.009,2.208
