Wavelength (nm),Intensity W35.1,,C:/Users/Brend/Desktop/LED Spectras v2/Spectrometer Data (White 34.3-36).sp,,,W35.1,
379.792,2.742,,2018-06-15 15:33:44,,Integration Time,301 ms,
380.000,2.739,,Analyze Light,,Number of Scans to Average,25,
380.209,2.732,,,,Smoothing,1,
380.418,2.757
380.627,2.794
380.837,2.833
381.048,2.853
381.259,2.854
381.471,2.853
381.683,2.863
381.896,2.886
382.110,2.892
382.324,2.909
382.538,2.934
382.753,2.965
382.969,2.952
383.185,2.929
383.402,2.908
383.619,2.926
383.837,2.955
384.055,3.000
384.274,3.036
384.493,3.058
384.712,3.063
384.932,3.067
385.153,3.075
385.374,3.094
385.596,3.110
385.818,3.142
386.040,3.173
386.263,3.210
386.487,3.222
386.710,3.220
386.935,3.193
387.159,3.184
387.385,3.175
387.610,3.180
387.836,3.187
388.063,3.206
388.289,3.225
388.517,3.238
388.744,3.238
388.972,3.263
389.201,3.283
389.430,3.309
389.659,3.323
389.889,3.345
390.119,3.360
390.349,3.371
390.580,3.387
390.811,3.401
391.042,3.408
391.274,3.413
391.507,3.421
391.739,3.424
391.972,3.417
392.205,3.428
392.439,3.454
392.673,3.492
392.907,3.519
393.142,3.552
393.377,3.576
393.612,3.604
393.848,3.612
394.084,3.626
394.320,3.626
394.557,3.643
394.794,3.646
395.031,3.667
395.269,3.690
395.507,3.720
395.745,3.723
395.983,3.719
396.222,3.727
396.461,3.771
396.700,3.824
396.940,3.860
397.180,3.865
397.420,3.850
397.660,3.833
397.901,3.823
398.142,3.825
398.383,3.820
398.625,3.811
398.866,3.821
399.108,3.864
399.351,3.937
399.593,3.964
399.836,3.970
400.079,3.942
400.322,3.927
400.566,3.906
400.809,3.898
401.053,3.905
401.298,3.921
401.542,3.949
401.787,3.990
402.031,4.022
402.277,4.050
402.522,4.054
402.767,4.067
403.013,4.057
403.259,4.065
403.505,4.066
403.752,4.082
403.998,4.090
404.245,4.130
404.492,4.175
404.739,4.209
404.986,4.218
405.234,4.226
405.482,4.230
405.730,4.230
405.978,4.230
406.226,4.228
406.475,4.217
406.723,4.213
406.972,4.232
407.221,4.268
407.470,4.285
407.720,4.304
407.969,4.295
408.219,4.313
408.469,4.329
408.719,4.360
408.969,4.370
409.219,4.391
409.470,4.412
409.720,4.441
409.971,4.458
410.222,4.492
410.473,4.510
410.724,4.517
410.976,4.515
411.227,4.535
411.479,4.554
411.731,4.575
411.983,4.571
412.235,4.576
412.487,4.566
412.740,4.576
412.992,4.587
413.245,4.607
413.497,4.608
413.750,4.610
414.003,4.596
414.257,4.589
414.510,4.578
414.763,4.598
415.017,4.625
415.270,4.655
415.524,4.658
415.778,4.660
416.032,4.661
416.286,4.690
416.540,4.708
416.794,4.733
417.049,4.733
417.303,4.741
417.558,4.747
417.812,4.757
418.067,4.764
418.322,4.777
418.577,4.782
418.832,4.788
419.088,4.769
419.343,4.778
419.598,4.775
419.854,4.795
420.109,4.809
420.365,4.856
420.621,4.894
420.876,4.938
421.132,4.958
421.388,4.971
421.645,4.976
421.901,5.006
422.157,5.043
422.413,5.091
422.670,5.119
422.926,5.151
423.183,5.158
423.439,5.197
423.696,5.245
423.953,5.347
424.210,5.431
424.467,5.490
424.724,5.511
424.981,5.530
425.238,5.578
425.495,5.664
425.753,5.752
426.010,5.842
426.267,5.911
426.525,6.007
426.782,6.103
427.040,6.219
427.298,6.335
427.555,6.474
427.813,6.592
428.071,6.708
428.329,6.815
428.587,6.931
428.845,7.051
429.103,7.181
429.361,7.312
429.619,7.454
429.878,7.602
430.136,7.780
430.394,7.952
430.653,8.161
430.911,8.383
431.170,8.616
431.428,8.813
431.687,9.006
431.946,9.208
432.204,9.436
432.463,9.686
432.722,9.936
432.981,10.181
433.240,10.444
433.499,10.736
433.758,11.056
434.017,11.345
434.276,11.628
434.535,11.907
434.794,12.220
435.053,12.547
435.312,12.898
435.572,13.248
435.831,13.628
436.090,14.034
436.350,14.475
436.609,14.921
436.869,15.366
437.128,15.797
437.388,16.229
437.647,16.671
437.907,17.157
438.166,17.651
438.426,18.155
438.686,18.665
438.946,19.201
439.205,19.775
439.465,20.381
439.725,21.016
439.985,21.663
440.245,22.295
440.505,22.942
440.765,23.585
441.025,24.248
441.285,24.938
441.545,25.655
441.805,26.404
442.065,27.161
442.325,27.953
442.585,28.801
442.846,29.695
443.106,30.670
443.366,31.681
443.626,32.728
443.887,33.796
444.147,34.906
444.407,36.064
444.668,37.282
444.928,38.567
445.189,39.928
445.449,41.340
445.710,42.802
445.970,44.323
446.231,45.918
446.491,47.582
446.752,49.299
447.012,51.058
447.273,52.887
447.534,54.761
447.794,56.668
448.055,58.599
448.316,60.626
448.577,62.741
448.837,64.916
449.098,67.099
449.359,69.272
449.620,71.420
449.881,73.538
450.142,75.635
450.403,77.730
450.664,79.805
450.924,81.802
451.185,83.607
451.446,85.143
451.707,86.400
451.969,87.452
452.230,88.358
452.491,89.149
452.752,89.822
453.013,90.404
453.274,90.905
453.535,91.331
453.796,91.656
454.058,91.902
454.319,92.090
454.580,92.220
454.841,92.293
455.103,92.301
455.364,92.241
455.625,92.133
455.887,91.975
456.148,91.785
456.409,91.547
456.671,91.255
456.932,90.888
457.194,90.447
457.455,89.940
457.716,89.366
457.978,88.738
458.239,88.025
458.501,87.238
458.763,86.314
459.024,85.239
459.286,83.979
459.547,82.562
459.809,81.008
460.071,79.385
460.332,77.762
460.594,76.172
460.856,74.625
461.117,73.105
461.379,71.658
461.641,70.291
461.903,68.987
462.164,67.726
462.426,66.502
462.688,65.334
462.950,64.210
463.212,63.145
463.474,62.117
463.736,61.137
463.998,60.246
464.260,59.434
464.522,58.699
464.784,57.959
465.046,57.236
465.308,56.542
465.570,55.912
465.832,55.322
466.094,54.747
466.356,54.188
466.618,53.632
466.880,53.058
467.142,52.463
467.405,51.868
467.667,51.334
467.929,50.823
468.191,50.337
468.454,49.809
468.716,49.265
468.978,48.651
469.241,48.004
469.503,47.344
469.765,46.724
470.028,46.127
470.290,45.501
470.552,44.853
470.815,44.186
471.077,43.532
471.340,42.893
471.602,42.245
471.865,41.583
472.128,40.891
472.390,40.228
472.653,39.559
472.915,38.904
473.178,38.235
473.441,37.575
473.703,36.919
473.966,36.267
474.229,35.619
474.492,34.970
474.755,34.314
475.017,33.698
475.280,33.104
475.543,32.556
475.806,31.985
476.069,31.408
476.332,30.838
476.595,30.317
476.858,29.817
477.121,29.327
477.384,28.855
477.647,28.437
477.910,28.044
478.173,27.661
478.436,27.273
478.699,26.900
478.962,26.541
479.226,26.236
479.489,25.946
479.752,25.691
480.015,25.426
480.279,25.171
480.542,24.898
480.805,24.634
481.069,24.378
481.332,24.146
481.595,23.934
481.859,23.775
482.122,23.617
482.386,23.451
482.649,23.249
482.913,23.058
483.177,22.862
483.440,22.676
483.704,22.502
483.967,22.379
484.231,22.275
484.495,22.186
484.759,22.081
485.022,21.954
485.286,21.818
485.550,21.679
485.814,21.519
486.078,21.368
486.342,21.232
486.606,21.161
486.869,21.089
487.133,21.026
487.397,20.959
487.662,20.896
487.926,20.812
488.190,20.728
488.454,20.644
488.718,20.584
488.982,20.500
489.246,20.431
489.511,20.346
489.775,20.283
490.039,20.213
490.304,20.159
490.568,20.103
490.832,20.073
491.097,20.064
491.361,20.072
491.626,20.079
491.890,20.088
492.155,20.097
492.419,20.125
492.684,20.131
492.949,20.143
493.213,20.162
493.478,20.231
493.743,20.290
494.008,20.323
494.272,20.355
494.537,20.441
494.802,20.551
495.067,20.668
495.332,20.771
495.597,20.887
495.862,20.989
496.127,21.101
496.392,21.196
496.657,21.298
496.922,21.394
497.187,21.508
497.452,21.641
497.718,21.819
497.983,22.000
498.248,22.167
498.513,22.296
498.779,22.451
499.044,22.611
499.310,22.757
499.575,22.876
499.841,23.019
500.106,23.191
500.372,23.362
500.637,23.534
500.903,23.746
501.168,23.953
501.434,24.133
501.700,24.256
501.966,24.400
502.231,24.548
502.497,24.717
502.763,24.872
503.029,25.039
503.295,25.206
503.561,25.382
503.827,25.566
504.093,25.757
504.359,25.930
504.625,26.115
504.891,26.279
505.157,26.474
505.423,26.628
505.690,26.794
505.956,26.966
506.222,27.173
506.489,27.389
506.755,27.600
507.021,27.780
507.288,27.959
507.554,28.122
507.821,28.317
508.087,28.512
508.354,28.736
508.621,28.925
508.887,29.083
509.154,29.219
509.421,29.374
509.687,29.536
509.954,29.702
510.221,29.863
510.488,30.061
510.755,30.256
511.022,30.455
511.289,30.601
511.556,30.739
511.823,30.866
512.090,31.036
512.357,31.191
512.624,31.358
512.891,31.507
513.159,31.663
513.426,31.807
513.693,31.958
513.960,32.107
514.228,32.266
514.495,32.416
514.763,32.577
515.030,32.715
515.298,32.849
515.565,32.991
515.833,33.146
516.100,33.273
516.368,33.369
516.636,33.447
516.904,33.563
517.171,33.677
517.439,33.807
517.707,33.919
517.975,34.058
518.243,34.211
518.511,34.369
518.779,34.471
519.047,34.576
519.315,34.660
519.583,34.761
519.851,34.828
520.119,34.921
520.387,35.022
520.656,35.129
520.924,35.236
521.192,35.345
521.461,35.443
521.729,35.533
521.997,35.634
522.266,35.754
522.534,35.862
522.803,35.971
523.071,36.058
523.340,36.142
523.609,36.216
523.877,36.303
524.146,36.389
524.415,36.476
524.684,36.568
524.952,36.660
525.221,36.743
525.490,36.833
525.759,36.923
526.028,37.014
526.297,37.060
526.566,37.101
526.835,37.147
527.104,37.232
527.373,37.324
527.642,37.404
527.912,37.446
528.181,37.483
528.450,37.530
528.719,37.601
528.989,37.686
529.258,37.765
529.528,37.818
529.797,37.843
530.067,37.868
530.336,37.891
530.606,37.903
530.875,37.892
531.145,37.906
531.414,37.953
531.684,38.037
531.954,38.104
532.224,38.157
532.493,38.176
532.763,38.200
533.033,38.229
533.303,38.270
533.573,38.305
533.843,38.295
534.113,38.309
534.383,38.322
534.653,38.379
534.923,38.428
535.193,38.483
535.463,38.526
535.733,38.554
536.004,38.572
536.274,38.600
536.544,38.609
536.814,38.616
537.085,38.631
537.355,38.694
537.626,38.776
537.896,38.850
538.166,38.900
538.437,38.960
538.707,39.041
538.978,39.133
539.249,39.231
539.519,39.318
539.790,39.366
540.061,39.397
540.331,39.416
540.602,39.453
540.873,39.474
541.144,39.502
541.414,39.525
541.685,39.566
541.956,39.588
542.227,39.609
542.498,39.616
542.769,39.643
543.040,39.697
543.311,39.792
543.582,39.907
543.853,40.018
544.124,40.094
544.396,40.135
544.667,40.131
544.938,40.107
545.209,40.014
545.480,39.935
545.752,39.851
546.023,39.820
546.294,39.771
546.566,39.733
546.837,39.698
547.109,39.695
547.380,39.692
547.652,39.682
547.923,39.656
548.195,39.651
548.466,39.653
548.738,39.667
549.009,39.640
549.281,39.609
549.553,39.567
549.824,39.520
550.096,39.487
550.368,39.472
550.640,39.479
550.911,39.496
551.183,39.525
551.455,39.567
551.727,39.579
551.999,39.553
552.271,39.497
552.543,39.454
552.815,39.414
553.087,39.401
553.359,39.381
553.631,39.347
553.903,39.279
554.175,39.223
554.447,39.183
554.719,39.161
554.991,39.127
555.263,39.086
555.535,39.038
555.808,39.005
556.080,38.961
556.352,38.919
556.624,38.854
556.897,38.781
557.169,38.709
557.441,38.648
557.714,38.589
557.986,38.561
558.258,38.533
558.531,38.547
558.803,38.528
559.076,38.516
559.348,38.458
559.621,38.391
559.893,38.320
560.166,38.263
560.438,38.217
560.711,38.182
560.983,38.175
561.256,38.189
561.528,38.194
561.801,38.184
562.074,38.162
562.346,38.139
562.619,38.101
562.892,38.051
563.164,37.984
563.437,37.949
563.710,37.911
563.983,37.872
564.255,37.818
564.528,37.824
564.801,37.866
565.074,37.896
565.346,37.846
565.619,37.754
565.892,37.648
566.165,37.551
566.438,37.437
566.711,37.333
566.984,37.241
567.257,37.179
567.529,37.124
567.802,37.107
568.075,37.083
568.348,37.039
568.621,36.958
568.894,36.855
569.167,36.745
569.440,36.635
569.713,36.496
569.986,36.371
570.259,36.220
570.532,36.119
570.805,36.040
571.078,36.014
571.351,35.989
571.625,35.954
571.898,35.858
572.171,35.732
572.444,35.600
572.717,35.501
572.990,35.411
573.263,35.299
573.536,35.170
573.809,35.049
574.083,34.960
574.356,34.916
574.629,34.899
574.902,34.870
575.175,34.804
575.448,34.698
575.721,34.567
575.995,34.442
576.268,34.339
576.541,34.296
576.814,34.279
577.087,34.277
577.361,34.255
577.634,34.205
577.907,34.108
578.180,33.970
578.453,33.824
578.727,33.709
579.000,33.606
579.273,33.527
579.546,33.475
579.820,33.465
580.093,33.441
580.366,33.401
580.639,33.340
580.913,33.289
581.186,33.219
581.459,33.136
581.732,33.001
582.005,32.860
582.279,32.701
582.552,32.580
582.825,32.471
583.098,32.412
583.372,32.395
583.645,32.423
583.918,32.452
584.191,32.452
584.464,32.391
584.738,32.302
585.011,32.183
585.284,32.055
585.557,31.912
585.831,31.802
586.104,31.724
586.377,31.694
586.650,31.658
586.923,31.625
587.196,31.576
587.470,31.512
587.743,31.425
588.016,31.323
588.289,31.223
588.562,31.134
588.835,31.025
589.109,30.912
589.382,30.808
589.655,30.741
589.928,30.692
590.201,30.635
590.474,30.577
590.747,30.522
591.020,30.460
591.293,30.378
591.567,30.258
591.840,30.124
592.113,29.977
592.386,29.835
592.659,29.699
592.932,29.588
593.205,29.499
593.478,29.428
593.751,29.356
594.024,29.295
594.297,29.207
594.570,29.099
594.843,28.987
595.116,28.888
595.389,28.787
595.662,28.672
595.934,28.564
596.207,28.476
596.480,28.397
596.753,28.318
597.026,28.214
597.299,28.114
597.572,28.002
597.844,27.885
598.117,27.721
598.390,27.558
598.663,27.388
598.936,27.256
599.208,27.127
599.481,27.018
599.754,26.909
600.026,26.787
600.299,26.663
600.572,26.544
600.844,26.421
601.117,26.280
601.390,26.125
601.662,25.982
601.935,25.851
602.207,25.729
602.480,25.611
602.752,25.492
603.025,25.356
603.297,25.234
603.570,25.136
603.842,25.081
604.115,24.999
604.387,24.911
604.660,24.778
604.932,24.652
605.204,24.521
605.477,24.400
605.749,24.279
606.021,24.153
606.294,24.033
606.566,23.913
606.838,23.820
607.110,23.748
607.383,23.697
607.655,23.650
607.927,23.601
608.199,23.544
608.471,23.446
608.743,23.305
609.015,23.136
609.287,22.973
609.559,22.829
609.831,22.707
610.103,22.578
610.375,22.439
610.647,22.277
610.919,22.106
611.191,21.938
611.463,21.779
611.735,21.609
612.007,21.432
612.278,21.256
612.550,21.115
612.822,20.975
613.094,20.843
613.365,20.688
613.637,20.559
613.909,20.413
614.180,20.278
614.452,20.120
614.723,19.972
614.995,19.826
615.266,19.706
615.538,19.609
615.809,19.517
616.081,19.397
616.352,19.257
616.623,19.099
616.895,18.958
617.166,18.809
617.437,18.677
617.709,18.551
617.980,18.453
618.251,18.365
618.522,18.297
618.793,18.241
619.065,18.202
619.336,18.102
619.607,17.973
619.878,17.834
620.149,17.728
620.420,17.604
620.691,17.461
620.962,17.331
621.232,17.249
621.503,17.149
621.774,17.060
622.045,16.958
622.316,16.899
622.586,16.828
622.857,16.764
623.128,16.670
623.398,16.568
623.669,16.441
623.940,16.314
624.210,16.186
624.481,16.105
624.751,16.021
625.021,15.938
625.292,15.827
625.562,15.754
625.833,15.682
626.103,15.615
626.373,15.513
626.643,15.422
626.914,15.315
627.184,15.231
627.454,15.143
627.724,15.054
627.994,14.959
628.264,14.864
628.534,14.770
628.804,14.685
629.074,14.623
629.344,14.577
629.614,14.522
629.884,14.463
630.154,14.398
630.424,14.328
630.693,14.231
630.963,14.123
631.233,14.005
631.502,13.908
631.772,13.837
632.041,13.786
632.311,13.722
632.581,13.644
632.850,13.561
633.119,13.465
633.389,13.368
633.658,13.285
633.928,13.245
634.197,13.227
634.466,13.207
634.735,13.169
635.004,13.092
635.274,13.004
635.543,12.907
635.812,12.828
636.081,12.757
636.350,12.699
636.619,12.645
636.888,12.580
637.157,12.504
637.426,12.439
637.694,12.377
637.963,12.318
638.232,12.249
638.501,12.172
638.769,12.104
639.038,12.043
639.307,12.004
639.575,11.963
639.844,11.888
640.112,11.796
640.381,11.697
640.649,11.628
640.917,11.580
641.186,11.525
641.454,11.472
641.722,11.403
641.991,11.336
642.259,11.249
642.527,11.168
642.795,11.107
643.063,11.043
643.331,10.983
643.599,10.916
643.867,10.884
644.135,10.847
644.403,10.818
644.671,10.759
644.939,10.711
645.206,10.651
645.474,10.601
645.742,10.529
646.009,10.444
646.277,10.369
646.545,10.305
646.812,10.268
647.080,10.234
647.347,10.194
647.615,10.125
647.882,10.032
648.149,9.939
648.417,9.856
648.684,9.798
648.951,9.765
649.219,9.736
649.486,9.686
649.753,9.623
650.020,9.546
650.287,9.465
650.554,9.365
650.821,9.271
651.088,9.183
651.355,9.136
651.622,9.082
651.889,9.041
652.155,8.971
652.422,8.919
652.689,8.878
652.956,8.840
653.222,8.803
653.489,8.778
653.755,8.733
654.022,8.654
654.288,8.542
654.555,8.454
654.821,8.398
655.088,8.360
655.354,8.320
655.620,8.281
655.887,8.230
656.153,8.180
656.419,8.127
656.685,8.070
656.951,8.013
657.217,7.953
657.483,7.895
657.749,7.833
658.015,7.772
658.281,7.706
658.547,7.626
658.813,7.542
659.079,7.463
659.345,7.394
659.610,7.333
659.876,7.282
660.142,7.245
660.407,7.209
660.673,7.177
660.939,7.148
661.204,7.100
661.470,7.045
661.735,6.992
662.000,6.957
662.266,6.915
662.531,6.857
662.796,6.798
663.062,6.742
663.327,6.684
663.592,6.637
663.857,6.594
664.122,6.560
664.388,6.515
664.653,6.483
664.918,6.461
665.183,6.435
665.448,6.407
665.712,6.371
665.977,6.343
666.242,6.307
666.507,6.221
666.772,6.129
667.037,6.033
667.301,5.988
667.566,5.945
667.831,5.921
668.095,5.889
668.360,5.866
668.624,5.812
668.889,5.785
669.153,5.751
669.418,5.733
669.682,5.702
669.946,5.680
670.211,5.675
670.475,5.658
670.739,5.635
671.004,5.613
671.268,5.614
671.532,5.631
671.796,5.564
672.060,5.481
672.324,5.383
672.588,5.364
672.852,5.356
673.116,5.394
673.380,5.433
673.644,5.363
673.908,5.238
674.172,5.103
674.436,5.070
674.700,5.049
674.963,5.027
675.227,4.997
675.491,4.941
675.754,4.883
676.018,4.831
676.282,4.807
676.545,4.777
676.809,4.724
677.072,4.660
677.336,4.602
677.599,4.574
677.863,4.552
678.126,4.539
678.389,4.538
678.653,4.533
678.916,4.509
679.179,4.449
679.442,4.398
679.706,4.371
679.969,4.353
680.232,4.336
680.495,4.325
680.758,4.318
681.021,4.288
681.284,4.236
681.547,4.181
681.810,4.161
682.073,4.167
682.336,4.171
682.599,4.149
682.862,4.116
683.125,4.096
683.388,4.096
683.651,4.086
683.913,4.063
684.176,4.002
684.439,3.933
684.702,3.864
684.964,3.824
685.227,3.802
685.490,3.808
685.752,3.826
686.015,3.821
686.277,3.790
686.540,3.743
686.802,3.700
687.065,3.676
687.327,3.667
687.590,3.659
687.852,3.630
688.115,3.585
688.377,3.555
688.639,3.536
688.902,3.519
689.164,3.499
689.426,3.497
689.689,3.497
689.951,3.479
690.213,3.449
690.475,3.427
690.737,3.411
691.000,3.387
691.262,3.360
691.524,3.348
691.786,3.352
692.048,3.357
692.310,3.337
692.572,3.291
692.834,3.240
693.096,3.218
693.358,3.222
693.620,3.241
693.882,3.251
694.144,3.243
694.406,3.208
694.668,3.173
694.930,3.133
695.192,3.096
695.453,3.070
695.715,3.057
695.977,3.044
696.239,3.013
696.501,2.988
696.762,2.986
697.024,2.987
697.286,2.963
697.548,2.936
697.809,2.912
698.071,2.894
698.333,2.874
698.594,2.858
698.856,2.860
699.118,2.856
699.379,2.846
699.641,2.836
699.902,2.836
700.164,2.826
700.426,2.804
700.687,2.769
700.949,2.756
701.210,2.744
701.472,2.730
701.733,2.697
701.995,2.679
702.256,2.667
702.518,2.661
702.779,2.642
703.041,2.648
703.302,2.670
703.563,2.668
703.825,2.636
704.086,2.599
704.348,2.582
704.609,2.581
704.871,2.592
705.132,2.611
705.393,2.597
705.655,2.573
705.916,2.552
706.177,2.551
706.439,2.548
706.700,2.535
706.961,2.519
707.223,2.509
707.484,2.476
707.745,2.446
708.007,2.410
708.268,2.376
708.529,2.337
708.790,2.285
709.052,2.254
709.313,2.247
709.574,2.258
709.835,2.264
710.097,2.244
710.358,2.204
710.619,2.169
710.881,2.139
711.142,2.122
711.403,2.099
711.664,2.089
711.926,2.062
712.187,2.054
712.448,2.056
712.709,2.078
712.970,2.096
713.232,2.099
713.493,2.099
713.754,2.093
714.015,2.086
714.277,2.090
714.538,2.101
714.799,2.127
715.060,2.136
715.322,2.134
715.583,2.106
715.844,2.077
716.105,2.047
716.367,2.028
716.628,2.018
716.889,2.008
717.150,1.986
717.411,1.953
717.673,1.939
717.934,1.942
718.195,1.952
718.457,1.938
718.718,1.909
718.979,1.893
719.240,1.897
719.502,1.915
719.763,1.927
720.024,1.931
720.286,1.932
720.547,1.913
720.808,1.891
721.069,1.875
721.331,1.883
721.592,1.902
721.853,1.908
722.115,1.907
722.376,1.903
722.638,1.895
722.899,1.886
723.160,1.863
723.422,1.844
723.683,1.829
723.944,1.836
724.206,1.841
724.467,1.840
724.729,1.830
724.990,1.839
725.252,1.850
725.513,1.840
725.775,1.807
726.036,1.781
726.298,1.779
726.559,1.797
726.821,1.804
727.082,1.807
727.344,1.799
727.605,1.798
727.867,1.789
728.128,1.792
728.390,1.790
728.652,1.806
728.913,1.829
729.175,1.847
729.436,1.847
729.698,1.847
729.960,1.841
730.221,1.832
730.483,1.800
730.745,1.785
731.007,1.779
731.268,1.779
731.530,1.779
731.792,1.780
732.054,1.789
732.315,1.799
732.577,1.809
732.839,1.800
733.101,1.783
733.363,1.768
733.625,1.762
733.887,1.766
734.149,1.766
734.411,1.778
734.673,1.789
734.935,1.796
735.197,1.789
