Wavelength (nm),Intensity W24.1,,C:/Users/Brend/Desktop/LED Spectras v2/Spectrometer Data (White).sp,,,W24.1,
379.792,2.638,,2018-06-15 13:46:46,,Integration Time,252 ms,
380.000,2.632,,Analyze Light,,Number of Scans to Average,25,
380.209,2.629,,,,Smoothing,1,
380.418,2.649
380.627,2.678
380.837,2.709
381.048,2.728
381.259,2.731
381.471,2.725
381.683,2.727
381.896,2.745
382.110,2.758
382.324,2.782
382.538,2.816
382.753,2.850
382.969,2.846
383.185,2.828
383.402,2.809
383.619,2.821
383.837,2.841
384.055,2.878
384.274,2.910
384.493,2.933
384.712,2.941
384.932,2.952
385.153,2.965
385.374,2.984
385.596,3.002
385.818,3.037
386.040,3.072
386.263,3.111
386.487,3.125
386.710,3.126
386.935,3.105
387.159,3.098
387.385,3.084
387.610,3.084
387.836,3.091
388.063,3.118
388.289,3.139
388.517,3.151
388.744,3.150
388.972,3.174
389.201,3.192
389.430,3.217
389.659,3.234
389.889,3.262
390.119,3.284
390.349,3.303
390.580,3.319
390.811,3.328
391.042,3.328
391.274,3.335
391.507,3.343
391.739,3.349
391.972,3.342
392.205,3.353
392.439,3.379
392.673,3.414
392.907,3.437
393.142,3.461
393.377,3.474
393.612,3.498
393.848,3.510
394.084,3.530
394.320,3.532
394.557,3.551
394.794,3.560
395.031,3.585
395.269,3.605
395.507,3.634
395.745,3.643
395.983,3.649
396.222,3.656
396.461,3.686
396.700,3.724
396.940,3.753
397.180,3.767
397.420,3.768
397.660,3.770
397.901,3.768
398.142,3.776
398.383,3.779
398.625,3.779
398.866,3.790
399.108,3.827
399.351,3.895
399.593,3.921
399.836,3.928
400.079,3.904
400.322,3.900
400.566,3.893
400.809,3.898
401.053,3.906
401.298,3.922
401.542,3.944
401.787,3.976
402.031,4.003
402.277,4.028
402.522,4.038
402.767,4.059
403.013,4.054
403.259,4.062
403.505,4.057
403.752,4.073
403.998,4.086
404.245,4.125
404.492,4.157
404.739,4.177
404.986,4.179
405.234,4.189
405.482,4.195
405.730,4.198
405.978,4.204
406.226,4.213
406.475,4.213
406.723,4.218
406.972,4.239
407.221,4.276
407.470,4.298
407.720,4.316
407.969,4.312
408.219,4.332
408.469,4.355
408.719,4.391
408.969,4.405
409.219,4.423
409.470,4.440
409.720,4.475
409.971,4.505
410.222,4.545
410.473,4.561
410.724,4.572
410.976,4.583
411.227,4.613
411.479,4.630
411.731,4.650
411.983,4.640
412.235,4.647
412.487,4.639
412.740,4.659
412.992,4.672
413.245,4.693
413.497,4.702
413.750,4.717
414.003,4.719
414.257,4.720
414.510,4.718
414.763,4.743
415.017,4.768
415.270,4.793
415.524,4.795
415.778,4.803
416.032,4.812
416.286,4.844
416.540,4.873
416.794,4.906
417.049,4.915
417.303,4.927
417.558,4.934
417.812,4.948
418.067,4.956
418.322,4.971
418.577,4.978
418.832,4.983
419.088,4.970
419.343,4.976
419.598,4.970
419.854,4.985
420.109,4.995
420.365,5.039
420.621,5.068
420.876,5.102
421.132,5.108
421.388,5.109
421.645,5.099
421.901,5.113
422.157,5.133
422.413,5.165
422.670,5.177
422.926,5.194
423.183,5.191
423.439,5.218
423.696,5.246
423.953,5.313
424.210,5.365
424.467,5.395
424.724,5.392
424.981,5.383
425.238,5.394
425.495,5.441
425.753,5.487
426.010,5.536
426.267,5.564
426.525,5.622
426.782,5.678
427.040,5.746
427.298,5.812
427.555,5.899
427.813,5.971
428.071,6.041
428.329,6.107
428.587,6.182
428.845,6.259
429.103,6.347
429.361,6.433
429.619,6.520
429.878,6.604
430.136,6.707
430.394,6.807
430.653,6.937
430.911,7.077
431.170,7.231
431.428,7.357
431.687,7.479
431.946,7.601
432.204,7.750
432.463,7.905
432.722,8.068
432.981,8.224
433.240,8.403
433.499,8.596
433.758,8.817
434.017,9.016
434.276,9.216
434.535,9.400
434.794,9.610
435.053,9.840
435.312,10.094
435.572,10.349
435.831,10.622
436.090,10.913
436.350,11.228
436.609,11.537
436.869,11.847
437.128,12.153
437.388,12.473
437.647,12.807
437.907,13.167
438.166,13.526
438.426,13.899
438.686,14.278
438.946,14.686
439.205,15.105
439.465,15.559
439.725,16.037
439.985,16.533
440.245,17.017
440.505,17.507
440.765,17.999
441.025,18.503
441.285,19.019
441.545,19.555
441.805,20.113
442.065,20.683
442.325,21.261
442.585,21.874
442.846,22.511
443.106,23.209
443.366,23.915
443.626,24.657
443.887,25.404
444.147,26.185
444.407,26.974
444.668,27.799
444.928,28.652
445.189,29.568
445.449,30.510
445.710,31.480
445.970,32.485
446.231,33.554
446.491,34.696
446.752,35.881
447.012,37.100
447.273,38.371
447.534,39.692
447.794,41.061
448.055,42.470
448.316,43.955
448.577,45.524
448.837,47.170
449.098,48.882
449.359,50.640
449.620,52.421
449.881,54.221
450.142,56.068
450.403,58.008
450.664,60.030
450.924,62.117
451.185,64.212
451.446,66.308
451.707,68.401
451.969,70.542
452.230,72.677
452.491,74.804
452.752,76.868
453.013,78.893
453.274,80.833
453.535,82.646
453.796,84.245
454.058,85.603
454.319,86.723
454.580,87.668
454.841,88.485
455.103,89.195
455.364,89.807
455.625,90.350
455.887,90.828
456.148,91.241
456.409,91.569
456.671,91.818
456.932,92.001
457.194,92.126
457.455,92.204
457.716,92.239
457.978,92.221
458.239,92.153
458.501,92.045
458.763,91.897
459.024,91.705
459.286,91.461
459.547,91.175
459.809,90.817
460.071,90.401
460.332,89.927
460.594,89.399
460.856,88.821
461.117,88.173
461.379,87.470
461.641,86.665
461.903,85.747
462.164,84.657
462.426,83.406
462.688,82.016
462.950,80.563
463.212,79.096
463.474,77.638
463.736,76.187
463.998,74.770
464.260,73.404
464.522,72.121
464.784,70.890
465.046,69.708
465.308,68.600
465.570,67.567
465.832,66.615
466.094,65.709
466.356,64.846
466.618,64.005
466.880,63.169
467.142,62.373
467.405,61.617
467.667,60.940
467.929,60.303
468.191,59.684
468.454,59.066
468.716,58.460
468.978,57.853
469.241,57.235
469.503,56.610
469.765,56.032
470.028,55.487
470.290,54.947
470.552,54.410
470.815,53.888
471.077,53.370
471.340,52.843
471.602,52.292
471.865,51.734
472.128,51.164
472.390,50.597
472.653,50.021
472.915,49.441
473.178,48.836
473.441,48.233
473.703,47.608
473.966,46.967
474.229,46.301
474.492,45.619
474.755,44.925
475.017,44.246
475.280,43.575
475.543,42.921
475.806,42.225
476.069,41.515
476.332,40.795
476.595,40.104
476.858,39.409
477.121,38.714
477.384,38.030
477.647,37.396
477.910,36.792
478.173,36.196
478.436,35.590
478.699,35.016
478.962,34.468
479.226,33.961
479.489,33.451
479.752,32.957
480.015,32.463
480.279,31.978
480.542,31.483
480.805,30.999
481.069,30.544
481.332,30.143
481.595,29.769
481.859,29.445
482.122,29.125
482.386,28.819
482.649,28.503
482.913,28.189
483.177,27.875
483.440,27.569
483.704,27.290
483.967,27.065
484.231,26.866
484.495,26.686
484.759,26.495
485.022,26.303
485.286,26.113
485.550,25.929
485.814,25.730
486.078,25.538
486.342,25.359
486.606,25.219
486.869,25.080
487.133,24.946
487.397,24.812
487.662,24.679
487.926,24.542
488.190,24.407
488.454,24.274
488.718,24.154
488.982,24.025
489.246,23.911
489.511,23.789
489.775,23.672
490.039,23.554
490.304,23.428
490.568,23.295
490.832,23.183
491.097,23.098
491.361,23.042
491.626,22.984
491.890,22.928
492.155,22.864
492.419,22.804
492.684,22.728
492.949,22.664
493.213,22.611
493.478,22.595
493.743,22.561
494.008,22.505
494.272,22.448
494.537,22.439
494.802,22.462
495.067,22.505
495.332,22.537
495.597,22.572
495.862,22.582
496.127,22.598
496.392,22.601
496.657,22.617
496.922,22.640
497.187,22.703
497.452,22.793
497.718,22.923
497.983,23.035
498.248,23.135
498.513,23.211
498.779,23.319
499.044,23.426
499.310,23.515
499.575,23.584
499.841,23.683
500.106,23.801
500.372,23.922
500.637,24.038
500.903,24.187
501.168,24.331
501.434,24.466
501.700,24.569
501.966,24.694
502.231,24.821
502.497,24.968
502.763,25.102
503.029,25.231
503.295,25.357
503.561,25.496
503.827,25.653
504.093,25.818
504.359,25.970
504.625,26.126
504.891,26.262
505.157,26.417
505.423,26.546
505.690,26.685
505.956,26.822
506.222,26.992
506.489,27.183
506.755,27.381
507.021,27.556
507.288,27.721
507.554,27.855
507.821,28.003
508.087,28.150
508.354,28.332
508.621,28.489
508.887,28.638
509.154,28.778
509.421,28.938
509.687,29.075
509.954,29.205
510.221,29.332
510.488,29.503
510.755,29.683
511.022,29.880
511.289,30.030
511.556,30.169
511.823,30.285
512.090,30.434
512.357,30.569
512.624,30.726
512.891,30.870
513.159,31.016
513.426,31.141
513.693,31.267
513.960,31.395
514.228,31.535
514.495,31.669
514.763,31.805
515.030,31.930
515.298,32.061
515.565,32.191
515.833,32.315
516.100,32.409
516.368,32.492
516.636,32.561
516.904,32.670
517.171,32.771
517.439,32.898
517.707,33.006
517.975,33.145
518.243,33.278
518.511,33.413
518.779,33.501
519.047,33.603
519.315,33.704
519.583,33.818
519.851,33.903
520.119,33.992
520.387,34.093
520.656,34.199
520.924,34.317
521.192,34.438
521.461,34.561
521.729,34.667
521.997,34.756
522.266,34.830
522.534,34.887
522.803,34.958
523.071,35.037
523.340,35.128
523.609,35.208
523.877,35.300
524.146,35.395
524.415,35.483
524.684,35.565
524.952,35.648
525.221,35.738
525.490,35.855
525.759,35.963
526.028,36.059
526.297,36.105
526.566,36.156
526.835,36.205
527.104,36.275
527.373,36.343
527.642,36.400
527.912,36.433
528.181,36.467
528.450,36.536
528.719,36.623
528.989,36.714
529.258,36.797
529.528,36.863
529.797,36.907
530.067,36.945
530.336,36.977
530.606,37.009
530.875,37.015
531.145,37.027
531.414,37.055
531.684,37.105
531.954,37.147
532.224,37.177
532.493,37.198
532.763,37.235
533.033,37.290
533.303,37.335
533.573,37.372
533.843,37.377
534.113,37.395
534.383,37.405
534.653,37.442
534.923,37.483
535.193,37.532
535.463,37.566
535.733,37.599
536.004,37.643
536.274,37.683
536.544,37.705
536.814,37.726
537.085,37.756
537.355,37.816
537.626,37.863
537.896,37.900
538.166,37.907
538.437,37.924
538.707,37.957
538.978,38.027
539.249,38.117
539.519,38.197
539.790,38.249
540.061,38.295
540.331,38.349
540.602,38.395
540.873,38.399
541.144,38.401
541.414,38.399
541.685,38.428
541.956,38.450
542.227,38.496
542.498,38.539
542.769,38.592
543.040,38.646
543.311,38.719
543.582,38.800
543.853,38.870
544.124,38.917
544.396,38.964
544.667,38.990
544.938,39.010
545.209,38.953
545.480,38.910
545.752,38.848
546.023,38.823
546.294,38.754
546.566,38.697
546.837,38.658
547.109,38.672
547.380,38.690
547.652,38.695
547.923,38.688
548.195,38.701
548.466,38.731
548.738,38.769
549.009,38.771
549.281,38.748
549.553,38.697
549.824,38.651
550.096,38.633
550.368,38.648
550.640,38.676
550.911,38.694
551.183,38.712
551.455,38.735
551.727,38.729
551.999,38.692
552.271,38.637
552.543,38.609
552.815,38.588
553.087,38.589
553.359,38.576
553.631,38.547
553.903,38.483
554.175,38.428
554.447,38.382
554.719,38.358
554.991,38.325
555.263,38.304
555.535,38.280
555.808,38.265
556.080,38.231
556.352,38.184
556.624,38.125
556.897,38.061
557.169,37.999
557.441,37.927
557.714,37.855
557.986,37.803
558.258,37.755
558.531,37.754
558.803,37.756
559.076,37.766
559.348,37.725
559.621,37.658
559.893,37.581
560.166,37.509
560.438,37.445
560.711,37.409
560.983,37.420
561.256,37.458
561.528,37.467
561.801,37.433
562.074,37.376
562.346,37.333
562.619,37.291
562.892,37.231
563.164,37.156
563.437,37.103
563.710,37.059
563.983,37.020
564.255,36.980
564.528,36.997
564.801,37.022
565.074,37.042
565.346,36.997
565.619,36.947
565.892,36.876
566.165,36.799
566.438,36.698
566.711,36.598
566.984,36.513
567.257,36.447
567.529,36.405
567.802,36.386
568.075,36.361
568.348,36.321
568.621,36.274
568.894,36.221
569.167,36.143
569.440,36.049
569.713,35.932
569.986,35.830
570.259,35.704
570.532,35.613
570.805,35.538
571.078,35.480
571.351,35.414
571.625,35.353
571.898,35.277
572.171,35.177
572.444,35.050
572.717,34.952
572.990,34.877
573.263,34.790
573.536,34.674
573.809,34.541
574.083,34.429
574.356,34.356
574.629,34.316
574.902,34.277
575.175,34.213
575.448,34.129
575.721,34.031
575.995,33.941
576.268,33.853
576.541,33.796
576.814,33.749
577.087,33.719
577.361,33.677
577.634,33.624
577.907,33.537
578.180,33.429
578.453,33.321
578.727,33.237
579.000,33.159
579.273,33.099
579.546,33.056
579.820,33.045
580.093,33.010
580.366,32.956
580.639,32.878
580.913,32.822
581.186,32.755
581.459,32.674
581.732,32.548
582.005,32.429
582.279,32.302
582.552,32.195
582.825,32.084
583.098,31.995
583.372,31.923
583.645,31.884
583.918,31.868
584.191,31.868
584.464,31.843
584.738,31.792
585.011,31.697
585.284,31.575
585.557,31.439
585.831,31.315
586.104,31.225
586.377,31.186
586.650,31.156
586.923,31.111
587.196,31.040
587.470,30.963
587.743,30.894
588.016,30.827
588.289,30.756
588.562,30.689
588.835,30.583
589.109,30.451
589.382,30.309
589.655,30.203
589.928,30.130
590.201,30.070
590.474,30.026
590.747,29.994
591.020,29.958
591.293,29.893
591.567,29.796
591.840,29.675
592.113,29.543
592.386,29.392
592.659,29.242
592.932,29.116
593.205,29.028
593.478,28.964
593.751,28.895
594.024,28.834
594.297,28.750
594.570,28.663
594.843,28.563
595.116,28.470
595.389,28.354
595.662,28.231
595.934,28.110
596.207,28.021
596.480,27.937
596.753,27.870
597.026,27.795
597.299,27.736
597.572,27.662
597.844,27.571
598.117,27.433
598.390,27.282
598.663,27.125
598.936,26.983
599.208,26.849
599.481,26.733
599.754,26.633
600.026,26.524
600.299,26.418
600.572,26.318
600.844,26.215
601.117,26.098
601.390,25.970
601.662,25.854
601.935,25.729
602.207,25.594
602.480,25.456
602.752,25.323
603.025,25.180
603.297,25.046
603.570,24.935
603.842,24.861
604.115,24.767
604.387,24.668
604.660,24.527
604.932,24.387
605.204,24.241
605.477,24.123
605.749,24.021
606.021,23.920
606.294,23.808
606.566,23.676
606.838,23.553
607.110,23.446
607.383,23.369
607.655,23.305
607.927,23.249
608.199,23.194
608.471,23.115
608.743,23.000
609.015,22.850
609.287,22.703
609.559,22.561
609.831,22.441
610.103,22.315
610.375,22.190
610.647,22.038
610.919,21.875
611.191,21.716
611.463,21.578
611.735,21.433
612.007,21.276
612.278,21.117
612.550,20.978
612.822,20.854
613.094,20.733
613.365,20.588
613.637,20.455
613.909,20.316
614.180,20.200
614.452,20.069
614.723,19.936
614.995,19.798
615.266,19.671
615.538,19.568
615.809,19.471
616.081,19.348
616.352,19.209
616.623,19.058
616.895,18.925
617.166,18.774
617.437,18.627
617.709,18.484
617.980,18.377
618.251,18.289
618.522,18.220
618.793,18.169
619.065,18.137
619.336,18.064
619.607,17.953
619.878,17.817
620.149,17.705
620.420,17.582
620.691,17.455
620.962,17.323
621.232,17.216
621.503,17.091
621.774,16.983
622.045,16.876
622.316,16.821
622.586,16.766
622.857,16.719
623.128,16.631
623.398,16.540
623.669,16.431
623.940,16.321
624.210,16.189
624.481,16.082
624.751,15.982
625.021,15.893
625.292,15.791
625.562,15.715
625.833,15.641
626.103,15.576
626.373,15.496
626.643,15.432
626.914,15.352
627.184,15.277
627.454,15.196
627.724,15.114
627.994,15.023
628.264,14.927
628.534,14.822
628.804,14.728
629.074,14.646
629.344,14.581
629.614,14.512
629.884,14.438
630.154,14.369
630.424,14.304
630.693,14.229
630.963,14.127
631.233,14.009
631.502,13.906
631.772,13.830
632.041,13.766
632.311,13.688
632.581,13.604
632.850,13.517
633.119,13.428
633.389,13.338
633.658,13.262
633.928,13.220
634.197,13.199
634.466,13.180
634.735,13.153
635.004,13.090
635.274,13.012
635.543,12.921
635.812,12.846
636.081,12.776
636.350,12.712
636.619,12.643
636.888,12.561
637.157,12.474
637.426,12.402
637.694,12.338
637.963,12.275
638.232,12.210
638.501,12.147
638.769,12.096
639.038,12.051
639.307,12.009
639.575,11.955
639.844,11.870
640.112,11.779
640.381,11.679
640.649,11.604
640.917,11.545
641.186,11.492
641.454,11.438
641.722,11.368
641.991,11.299
642.259,11.218
642.527,11.148
642.795,11.087
643.063,11.011
643.331,10.938
643.599,10.869
643.867,10.842
644.135,10.812
644.403,10.783
644.671,10.728
644.939,10.674
645.206,10.614
645.474,10.563
645.742,10.499
646.009,10.422
646.277,10.352
646.545,10.293
646.812,10.252
647.080,10.217
647.347,10.179
647.615,10.121
647.882,10.034
648.149,9.946
648.417,9.873
648.684,9.820
648.951,9.783
649.219,9.743
649.486,9.692
649.753,9.627
650.020,9.548
650.287,9.463
650.554,9.367
650.821,9.281
651.088,9.201
651.355,9.155
651.622,9.097
651.889,9.044
652.155,8.974
652.422,8.924
652.689,8.886
652.956,8.847
653.222,8.808
653.489,8.782
653.755,8.747
654.022,8.681
654.288,8.580
654.555,8.483
654.821,8.414
655.088,8.366
655.354,8.322
655.620,8.277
655.887,8.221
656.153,8.165
656.419,8.099
656.685,8.035
656.951,7.975
657.217,7.919
657.483,7.862
657.749,7.806
658.015,7.755
658.281,7.704
658.547,7.635
658.813,7.557
659.079,7.476
659.345,7.400
659.610,7.331
659.876,7.271
660.142,7.221
660.407,7.176
660.673,7.132
660.939,7.100
661.204,7.064
661.470,7.023
661.735,6.972
662.000,6.933
662.266,6.889
662.531,6.839
662.796,6.784
663.062,6.734
663.327,6.683
663.592,6.636
663.857,6.591
664.122,6.552
664.388,6.503
664.653,6.459
664.918,6.427
665.183,6.400
665.448,6.375
665.712,6.343
665.977,6.310
666.242,6.267
666.507,6.188
666.772,6.110
667.037,6.032
667.301,5.988
667.566,5.941
667.831,5.910
668.095,5.872
668.360,5.843
668.624,5.791
668.889,5.761
669.153,5.723
669.418,5.700
669.682,5.666
669.946,5.646
670.211,5.637
670.475,5.623
670.739,5.601
671.004,5.578
671.268,5.572
671.532,5.579
671.796,5.521
672.060,5.443
672.324,5.351
672.588,5.317
672.852,5.303
673.116,5.331
673.380,5.366
673.644,5.306
673.908,5.195
674.172,5.074
674.436,5.041
674.700,5.020
674.963,5.000
675.227,4.971
675.491,4.918
675.754,4.864
676.018,4.809
676.282,4.775
676.545,4.731
676.809,4.676
677.072,4.620
677.336,4.574
677.599,4.551
677.863,4.528
678.126,4.510
678.389,4.498
678.653,4.484
678.916,4.457
679.179,4.407
679.442,4.365
679.706,4.337
679.969,4.313
680.232,4.290
680.495,4.275
680.758,4.264
681.021,4.237
681.284,4.189
681.547,4.140
681.810,4.117
682.073,4.115
682.336,4.108
682.599,4.080
682.862,4.048
683.125,4.030
683.388,4.026
683.651,4.016
683.913,3.997
684.176,3.950
684.439,3.895
684.702,3.830
684.964,3.789
685.227,3.769
685.490,3.769
685.752,3.779
686.015,3.762
686.277,3.732
686.540,3.686
686.802,3.640
687.065,3.609
687.327,3.591
687.590,3.582
687.852,3.558
688.115,3.516
688.377,3.486
688.639,3.470
688.902,3.464
689.164,3.457
689.426,3.454
689.689,3.453
689.951,3.437
690.213,3.411
690.475,3.381
690.737,3.350
691.000,3.319
691.262,3.295
691.524,3.289
691.786,3.294
692.048,3.301
692.310,3.282
692.572,3.236
692.834,3.183
693.096,3.161
693.358,3.166
693.620,3.180
693.882,3.185
694.144,3.172
694.406,3.135
694.668,3.096
694.930,3.057
695.192,3.024
695.453,2.999
695.715,2.984
695.977,2.969
696.239,2.940
696.501,2.917
696.762,2.911
697.024,2.911
697.286,2.892
697.548,2.869
697.809,2.849
698.071,2.833
698.333,2.813
698.594,2.790
698.856,2.783
699.118,2.773
699.379,2.761
699.641,2.749
699.902,2.744
700.164,2.736
700.426,2.714
700.687,2.683
700.949,2.666
701.210,2.651
701.472,2.636
701.733,2.609
701.995,2.593
702.256,2.579
702.518,2.569
702.779,2.552
703.041,2.557
703.302,2.572
703.563,2.564
703.825,2.533
704.086,2.500
704.348,2.487
704.609,2.489
704.871,2.497
705.132,2.507
705.393,2.491
705.655,2.468
705.916,2.450
706.177,2.446
706.439,2.442
706.700,2.434
706.961,2.425
707.223,2.415
707.484,2.384
707.745,2.350
708.007,2.314
708.268,2.287
708.529,2.265
708.790,2.230
709.052,2.198
709.313,2.175
709.574,2.167
709.835,2.163
710.097,2.145
710.358,2.107
710.619,2.070
710.881,2.038
711.142,2.022
711.403,2.005
711.664,1.997
711.926,1.977
712.187,1.971
712.448,1.971
712.709,1.983
712.970,1.990
713.232,1.991
713.493,1.989
713.754,1.976
714.015,1.967
714.277,1.970
714.538,1.982
714.799,2.002
715.060,2.008
715.322,2.003
715.583,1.979
715.844,1.954
716.105,1.929
716.367,1.909
716.628,1.896
716.889,1.885
717.150,1.866
717.411,1.840
717.673,1.829
717.934,1.831
718.195,1.839
718.457,1.828
718.718,1.803
718.979,1.783
719.240,1.782
719.502,1.794
719.763,1.806
720.024,1.807
720.286,1.801
720.547,1.781
720.808,1.764
721.069,1.752
721.331,1.758
721.592,1.773
721.853,1.779
722.115,1.781
722.376,1.778
722.638,1.772
722.899,1.762
723.160,1.744
723.422,1.726
723.683,1.714
723.944,1.719
724.206,1.722
724.467,1.720
724.729,1.711
724.990,1.719
725.252,1.731
725.513,1.726
725.775,1.703
726.036,1.681
726.298,1.675
726.559,1.682
726.821,1.682
727.082,1.682
727.344,1.677
727.605,1.675
727.867,1.666
728.128,1.669
728.390,1.673
728.652,1.689
728.913,1.709
729.175,1.721
729.436,1.721
729.698,1.721
729.960,1.715
730.221,1.707
730.483,1.682
730.745,1.670
731.007,1.663
731.268,1.663
731.530,1.664
731.792,1.666
732.054,1.672
732.315,1.678
732.577,1.684
732.839,1.673
733.101,1.655
733.363,1.639
733.625,1.636
733.887,1.643
734.149,1.649
734.411,1.661
734.673,1.670
734.935,1.675
735.197,1.671
735.459,1.676
735.721,1.679
