Wavelength (nm),Intensity W27.1,,C:/Users/Brend/Desktop/LED Spectras v2/Spectrometer Data (White).sp,,,W27.1,
379.792,2.490,,2018-06-15 14:21:44,,Integration Time,215 ms,
380.000,2.485,,Analyze Light,,Number of Scans to Average,25,
380.209,2.478,,,,Smoothing,1,
380.418,2.493
380.627,2.519
380.837,2.548
381.048,2.565
381.259,2.567
381.471,2.568
381.683,2.576
381.896,2.596
382.110,2.604
382.324,2.620
382.538,2.641
382.753,2.666
382.969,2.664
383.185,2.654
383.402,2.642
383.619,2.656
383.837,2.672
384.055,2.703
384.274,2.727
384.493,2.745
384.712,2.748
384.932,2.755
385.153,2.770
385.374,2.787
385.596,2.800
385.818,2.821
386.040,2.849
386.263,2.879
386.487,2.893
386.710,2.894
386.935,2.877
387.159,2.867
387.385,2.853
387.610,2.851
387.836,2.857
388.063,2.878
388.289,2.899
388.517,2.917
388.744,2.923
388.972,2.949
389.201,2.963
389.430,2.982
389.659,2.989
389.889,3.006
390.119,3.018
390.349,3.027
390.580,3.039
390.811,3.049
391.042,3.058
391.274,3.069
391.507,3.084
391.739,3.093
391.972,3.090
392.205,3.100
392.439,3.125
392.673,3.161
392.907,3.186
393.142,3.213
393.377,3.228
393.612,3.250
393.848,3.258
394.084,3.270
394.320,3.272
394.557,3.283
394.794,3.292
395.031,3.314
395.269,3.336
395.507,3.358
395.745,3.359
395.983,3.358
396.222,3.359
396.461,3.385
396.700,3.414
396.940,3.438
397.180,3.444
397.420,3.442
397.660,3.442
397.901,3.442
398.142,3.448
398.383,3.450
398.625,3.449
398.866,3.461
399.108,3.491
399.351,3.547
399.593,3.569
399.836,3.574
400.079,3.552
400.322,3.546
400.566,3.538
400.809,3.542
401.053,3.550
401.298,3.569
401.542,3.590
401.787,3.613
402.031,3.628
402.277,3.642
402.522,3.650
402.767,3.665
403.013,3.668
403.259,3.684
403.505,3.689
403.752,3.699
403.998,3.699
404.245,3.725
404.492,3.751
404.739,3.772
404.986,3.774
405.234,3.783
405.482,3.792
405.730,3.799
405.978,3.805
406.226,3.808
406.475,3.804
406.723,3.809
406.972,3.828
407.221,3.862
407.470,3.880
407.720,3.897
407.969,3.894
408.219,3.909
408.469,3.919
408.719,3.941
408.969,3.949
409.219,3.966
409.470,3.979
409.720,4.004
409.971,4.023
410.222,4.055
410.473,4.063
410.724,4.066
410.976,4.064
411.227,4.084
411.479,4.097
411.731,4.112
411.983,4.113
412.235,4.126
412.487,4.127
412.740,4.135
412.992,4.141
413.245,4.155
413.497,4.159
413.750,4.164
414.003,4.157
414.257,4.153
414.510,4.147
414.763,4.169
415.017,4.189
415.270,4.213
415.524,4.213
415.778,4.218
416.032,4.216
416.286,4.238
416.540,4.253
416.794,4.276
417.049,4.280
417.303,4.287
417.558,4.291
417.812,4.302
418.067,4.313
418.322,4.328
418.577,4.329
418.832,4.329
419.088,4.313
419.343,4.319
419.598,4.316
419.854,4.335
420.109,4.353
420.365,4.394
420.621,4.419
420.876,4.446
421.132,4.454
421.388,4.468
421.645,4.477
421.901,4.506
422.157,4.533
422.413,4.564
422.670,4.582
422.926,4.604
423.183,4.616
423.439,4.663
423.696,4.716
423.953,4.805
424.210,4.874
424.467,4.924
424.724,4.944
424.981,4.964
425.238,5.006
425.495,5.078
425.753,5.148
426.010,5.222
426.267,5.285
426.525,5.370
426.782,5.447
427.040,5.533
427.298,5.623
427.555,5.734
427.813,5.836
428.071,5.937
428.329,6.028
428.587,6.140
428.845,6.257
429.103,6.390
429.361,6.515
429.619,6.646
429.878,6.778
430.136,6.933
430.394,7.089
430.653,7.275
430.911,7.465
431.170,7.672
431.428,7.852
431.687,8.037
431.946,8.219
432.204,8.422
432.463,8.637
432.722,8.869
432.981,9.101
433.240,9.356
433.499,9.621
433.758,9.911
434.017,10.179
434.276,10.453
434.535,10.729
434.794,11.028
435.053,11.339
435.312,11.669
435.572,12.004
435.831,12.367
436.090,12.746
436.350,13.143
436.609,13.544
436.869,13.960
437.128,14.372
437.388,14.795
437.647,15.236
437.907,15.719
438.166,16.202
438.426,16.680
438.686,17.162
438.946,17.672
439.205,18.210
439.465,18.785
439.725,19.389
439.985,20.019
440.245,20.638
440.505,21.273
440.765,21.902
441.025,22.557
441.285,23.235
441.545,23.951
441.805,24.702
442.065,25.460
442.325,26.243
442.585,27.059
442.846,27.938
443.106,28.884
443.366,29.869
443.626,30.888
443.887,31.946
444.147,33.058
444.407,34.211
444.668,35.413
444.928,36.677
445.189,38.017
445.449,39.418
445.710,40.881
445.970,42.416
446.231,44.032
446.491,45.723
446.752,47.470
447.012,49.262
447.273,51.130
447.534,53.054
447.794,55.020
448.055,57.012
448.316,59.085
448.577,61.229
448.837,63.436
449.098,65.660
449.359,67.886
449.620,70.096
449.881,72.280
450.142,74.459
450.403,76.627
450.664,78.781
450.924,80.876
451.185,82.817
451.446,84.514
451.707,85.916
451.969,87.076
452.230,88.051
452.491,88.905
452.752,89.630
453.013,90.267
453.274,90.800
453.535,91.243
453.796,91.578
454.058,91.827
454.319,92.007
454.580,92.131
454.841,92.196
455.103,92.196
455.364,92.130
455.625,92.014
455.887,91.850
456.148,91.632
456.409,91.354
456.671,90.998
456.932,90.560
457.194,90.037
457.455,89.428
457.716,88.750
457.978,87.983
458.239,87.137
458.501,86.147
458.763,84.970
459.024,83.570
459.286,81.966
459.547,80.246
459.809,78.458
460.071,76.680
460.332,74.934
460.594,73.249
460.856,71.622
461.117,70.028
461.379,68.489
461.641,67.023
461.903,65.647
462.164,64.345
462.426,63.104
462.688,61.936
462.950,60.846
463.212,59.829
463.474,58.867
463.736,57.951
463.998,57.106
464.260,56.333
464.522,55.647
464.784,55.007
465.046,54.395
465.308,53.808
465.570,53.244
465.832,52.707
466.094,52.184
466.356,51.676
466.618,51.179
466.880,50.661
467.142,50.126
467.405,49.594
467.667,49.084
467.929,48.574
468.191,48.055
468.454,47.503
468.716,46.936
468.978,46.327
469.241,45.675
469.503,45.025
469.765,44.393
470.028,43.783
470.290,43.151
470.552,42.480
470.815,41.812
471.077,41.129
471.340,40.465
471.602,39.778
471.865,39.096
472.128,38.404
472.390,37.728
472.653,37.058
472.915,36.381
473.178,35.701
473.441,35.025
473.703,34.369
473.966,33.723
474.229,33.069
474.492,32.418
474.755,31.759
475.017,31.152
475.280,30.579
475.543,30.042
475.806,29.482
476.069,28.919
476.332,28.367
476.595,27.867
476.858,27.401
477.121,26.963
477.384,26.530
477.647,26.127
477.910,25.758
478.173,25.411
478.436,25.052
478.699,24.718
478.962,24.404
479.226,24.147
479.489,23.889
479.752,23.641
480.015,23.375
480.279,23.127
480.542,22.890
480.805,22.678
481.069,22.465
481.332,22.276
481.595,22.098
481.859,21.945
482.122,21.780
482.386,21.614
482.649,21.445
482.913,21.284
483.177,21.115
483.440,20.945
483.704,20.782
483.967,20.658
484.231,20.557
484.495,20.467
484.759,20.352
485.022,20.223
485.286,20.089
485.550,19.964
485.814,19.809
486.078,19.669
486.342,19.541
486.606,19.468
486.869,19.389
487.133,19.317
487.397,19.240
487.662,19.171
487.926,19.092
488.190,19.015
488.454,18.926
488.718,18.858
488.982,18.776
489.246,18.720
489.511,18.657
489.775,18.613
490.039,18.562
490.304,18.510
490.568,18.447
490.832,18.409
491.097,18.394
491.361,18.411
491.626,18.415
491.890,18.415
492.155,18.408
492.419,18.426
492.684,18.442
492.949,18.468
493.213,18.500
493.478,18.556
493.743,18.612
494.008,18.657
494.272,18.709
494.537,18.796
494.802,18.907
495.067,19.039
495.332,19.155
495.597,19.272
495.862,19.367
496.127,19.470
496.392,19.555
496.657,19.644
496.922,19.741
497.187,19.878
497.452,20.035
497.718,20.229
497.983,20.401
498.248,20.562
498.513,20.685
498.779,20.831
499.044,20.984
499.310,21.125
499.575,21.237
499.841,21.366
500.106,21.513
500.372,21.682
500.637,21.861
500.903,22.068
501.168,22.261
501.434,22.431
501.700,22.562
501.966,22.710
502.231,22.853
502.497,23.010
502.763,23.147
503.029,23.287
503.295,23.428
503.561,23.590
503.827,23.761
504.093,23.939
504.359,24.099
504.625,24.269
504.891,24.428
505.157,24.616
505.423,24.777
505.690,24.937
505.956,25.082
506.222,25.255
506.489,25.447
506.755,25.647
507.021,25.833
507.288,26.012
507.554,26.166
507.821,26.326
508.087,26.483
508.354,26.664
508.621,26.835
508.887,26.995
509.154,27.146
509.421,27.304
509.687,27.463
509.954,27.629
510.221,27.789
510.488,27.979
510.755,28.161
511.022,28.347
511.289,28.486
511.556,28.624
511.823,28.749
512.090,28.906
512.357,29.054
512.624,29.218
512.891,29.365
513.159,29.523
513.426,29.676
513.693,29.831
513.960,29.975
514.228,30.111
514.495,30.241
514.763,30.366
515.030,30.482
515.298,30.592
515.565,30.724
515.833,30.864
516.100,30.994
516.368,31.102
516.636,31.186
516.904,31.290
517.171,31.377
517.439,31.490
517.707,31.605
517.975,31.746
518.243,31.881
518.511,32.015
518.779,32.116
519.047,32.243
519.315,32.349
519.583,32.458
519.851,32.526
520.119,32.608
520.387,32.707
520.656,32.827
520.924,32.948
521.192,33.053
521.461,33.136
521.729,33.214
521.997,33.298
522.266,33.396
522.534,33.486
522.803,33.583
523.071,33.671
523.340,33.756
523.609,33.827
523.877,33.893
524.146,33.964
524.415,34.047
524.684,34.138
524.952,34.237
525.221,34.323
525.490,34.417
525.759,34.497
526.028,34.578
526.297,34.634
526.566,34.694
526.835,34.750
527.104,34.821
527.373,34.889
527.642,34.956
527.912,35.001
528.181,35.052
528.450,35.108
528.719,35.185
528.989,35.256
529.258,35.319
529.528,35.349
529.797,35.375
530.067,35.405
530.336,35.436
530.606,35.454
530.875,35.453
531.145,35.470
531.414,35.511
531.684,35.571
531.954,35.619
532.224,35.647
532.493,35.659
532.763,35.680
533.033,35.719
533.303,35.759
533.573,35.805
533.843,35.817
534.113,35.839
534.383,35.842
534.653,35.875
534.923,35.924
535.193,35.983
535.463,36.036
535.733,36.079
536.004,36.121
536.274,36.155
536.544,36.167
536.814,36.176
537.085,36.185
537.355,36.218
537.626,36.256
537.896,36.287
538.166,36.315
538.437,36.354
538.707,36.409
538.978,36.480
539.249,36.568
539.519,36.647
539.790,36.693
540.061,36.719
540.331,36.743
540.602,36.770
540.873,36.767
541.144,36.765
541.414,36.758
541.685,36.781
541.956,36.800
542.227,36.832
542.498,36.856
542.769,36.905
543.040,36.953
543.311,37.018
543.582,37.095
543.853,37.186
544.124,37.273
544.396,37.349
544.667,37.397
544.938,37.408
545.209,37.348
545.480,37.289
545.752,37.229
546.023,37.203
546.294,37.149
546.566,37.106
546.837,37.070
547.109,37.067
547.380,37.060
547.652,37.052
547.923,37.041
548.195,37.034
548.466,37.027
548.738,37.014
549.009,36.995
549.281,36.958
549.553,36.913
549.824,36.874
550.096,36.862
550.368,36.870
550.640,36.880
550.911,36.886
551.183,36.899
551.455,36.915
551.727,36.919
551.999,36.896
552.271,36.864
552.543,36.858
552.815,36.859
553.087,36.882
553.359,36.878
553.631,36.854
553.903,36.786
554.175,36.715
554.447,36.652
554.719,36.609
554.991,36.569
555.263,36.545
555.535,36.530
555.808,36.522
556.080,36.496
556.352,36.459
556.624,36.403
556.897,36.347
557.169,36.280
557.441,36.215
557.714,36.142
557.986,36.093
558.258,36.054
558.531,36.056
558.803,36.041
559.076,36.028
559.348,35.984
559.621,35.937
559.893,35.876
560.166,35.812
560.438,35.748
560.711,35.709
560.983,35.695
561.256,35.704
561.528,35.697
561.801,35.661
562.074,35.606
562.346,35.560
562.619,35.524
562.892,35.480
563.164,35.433
563.437,35.407
563.710,35.389
563.983,35.359
564.255,35.322
564.528,35.319
564.801,35.343
565.074,35.366
565.346,35.337
565.619,35.284
565.892,35.210
566.165,35.129
566.438,35.023
566.711,34.912
566.984,34.824
567.257,34.766
567.529,34.731
567.802,34.708
568.075,34.674
568.348,34.622
568.621,34.574
568.894,34.526
569.167,34.476
569.440,34.398
569.713,34.290
569.986,34.185
570.259,34.062
570.532,33.961
570.805,33.863
571.078,33.792
571.351,33.727
571.625,33.671
571.898,33.606
572.171,33.526
572.444,33.424
572.717,33.314
572.990,33.205
573.263,33.086
573.536,32.956
573.809,32.821
574.083,32.712
574.356,32.648
574.629,32.626
574.902,32.603
575.175,32.543
575.448,32.441
575.721,32.326
575.995,32.230
576.268,32.160
576.541,32.119
576.814,32.080
577.087,32.052
577.361,32.018
577.634,31.988
577.907,31.928
578.180,31.837
578.453,31.724
578.727,31.632
579.000,31.553
579.273,31.500
579.546,31.457
579.820,31.431
580.093,31.380
580.366,31.307
580.639,31.213
580.913,31.130
581.186,31.039
581.459,30.953
581.732,30.841
582.005,30.728
582.279,30.599
582.552,30.492
582.825,30.394
583.098,30.319
583.372,30.262
583.645,30.240
583.918,30.243
584.191,30.253
584.464,30.237
584.738,30.187
585.011,30.102
585.284,29.998
585.557,29.881
585.831,29.766
586.104,29.670
586.377,29.614
586.650,29.572
586.923,29.526
587.196,29.467
587.470,29.416
587.743,29.369
588.016,29.322
588.289,29.253
588.562,29.168
588.835,29.054
589.109,28.931
589.382,28.821
589.655,28.737
589.928,28.669
590.201,28.606
590.474,28.551
590.747,28.508
591.020,28.454
591.293,28.375
591.567,28.255
591.840,28.122
592.113,27.980
592.386,27.849
592.659,27.715
592.932,27.614
593.205,27.536
593.478,27.486
593.751,27.423
594.024,27.370
594.297,27.299
594.570,27.222
594.843,27.126
595.116,27.029
595.389,26.923
595.662,26.806
595.934,26.688
596.207,26.589
596.480,26.502
596.753,26.423
597.026,26.328
597.299,26.248
597.572,26.166
597.844,26.082
598.117,25.956
598.390,25.815
598.663,25.660
598.936,25.517
599.208,25.383
599.481,25.274
599.754,25.186
600.026,25.093
600.299,24.998
600.572,24.897
600.844,24.790
601.117,24.662
601.390,24.528
601.662,24.405
601.935,24.278
602.207,24.147
602.480,24.008
602.752,23.877
603.025,23.739
603.297,23.618
603.570,23.518
603.842,23.463
604.115,23.390
604.387,23.318
604.660,23.205
604.932,23.094
605.204,22.968
605.477,22.843
605.749,22.724
606.021,22.606
606.294,22.485
606.566,22.347
606.838,22.224
607.110,22.128
607.383,22.064
607.655,22.005
607.927,21.941
608.199,21.867
608.471,21.770
608.743,21.647
609.015,21.504
609.287,21.365
609.559,21.234
609.831,21.117
610.103,20.991
610.375,20.859
610.647,20.707
610.919,20.551
611.191,20.399
611.463,20.261
611.735,20.127
612.007,19.986
612.278,19.848
612.550,19.719
612.822,19.600
613.094,19.483
613.365,19.347
613.637,19.221
613.909,19.084
614.180,18.963
614.452,18.825
614.723,18.689
614.995,18.559
615.266,18.450
615.538,18.359
615.809,18.276
616.081,18.157
616.352,18.022
616.623,17.876
616.895,17.753
617.166,17.623
617.437,17.492
617.709,17.356
617.980,17.246
618.251,17.151
618.522,17.080
618.793,17.031
619.065,16.994
619.336,16.924
619.607,16.813
619.878,16.685
620.149,16.575
620.420,16.457
620.691,16.333
620.962,16.214
621.232,16.124
621.503,16.018
621.774,15.921
622.045,15.820
622.316,15.768
622.586,15.713
622.857,15.668
623.128,15.577
623.398,15.483
623.669,15.370
623.940,15.255
624.210,15.129
624.481,15.034
624.751,14.952
625.021,14.880
625.292,14.788
625.562,14.724
625.833,14.666
626.103,14.614
626.373,14.545
626.643,14.473
626.914,14.382
627.184,14.295
627.454,14.211
627.724,14.132
627.994,14.045
628.264,13.949
628.534,13.848
628.804,13.757
629.074,13.688
629.344,13.632
629.614,13.575
629.884,13.512
630.154,13.453
630.424,13.388
630.693,13.311
630.963,13.224
631.233,13.137
631.502,13.065
631.772,13.004
632.041,12.941
632.311,12.858
632.581,12.775
632.850,12.693
633.119,12.605
633.389,12.511
633.658,12.428
633.928,12.376
634.197,12.345
634.466,12.313
634.735,12.273
635.004,12.204
635.274,12.131
635.543,12.053
635.812,11.987
636.081,11.923
636.350,11.863
636.619,11.798
636.888,11.735
637.157,11.665
637.426,11.607
637.694,11.545
637.963,11.481
638.232,11.421
638.501,11.368
638.769,11.322
639.038,11.263
639.307,11.200
639.575,11.134
639.844,11.054
640.112,10.972
640.381,10.887
640.649,10.822
640.917,10.768
641.186,10.714
641.454,10.665
641.722,10.609
641.991,10.558
642.259,10.487
642.527,10.415
642.795,10.349
643.063,10.277
643.331,10.219
643.599,10.163
643.867,10.140
644.135,10.112
644.403,10.089
644.671,10.042
644.939,9.993
645.206,9.935
645.474,9.880
645.742,9.815
646.009,9.738
646.277,9.664
646.545,9.601
646.812,9.558
647.080,9.522
647.347,9.481
647.615,9.422
647.882,9.340
648.149,9.257
648.417,9.182
648.684,9.118
648.951,9.061
649.219,9.017
649.486,8.978
649.753,8.939
650.020,8.873
650.287,8.797
650.554,8.703
650.821,8.618
651.088,8.538
651.355,8.492
651.622,8.442
651.889,8.401
652.155,8.343
652.422,8.296
652.689,8.258
652.956,8.217
653.222,8.181
653.489,8.152
653.755,8.112
654.022,8.045
654.288,7.954
654.555,7.872
654.821,7.811
655.088,7.761
655.354,7.716
655.620,7.677
655.887,7.630
656.153,7.580
656.419,7.519
656.685,7.462
656.951,7.406
657.217,7.354
657.483,7.300
657.749,7.242
658.015,7.193
658.281,7.141
658.547,7.078
658.813,7.005
659.079,6.929
659.345,6.863
659.610,6.803
659.876,6.760
660.142,6.718
660.407,6.673
660.673,6.624
660.939,6.585
661.204,6.542
661.470,6.494
661.735,6.451
662.000,6.425
662.266,6.396
662.531,6.354
662.796,6.299
663.062,6.238
663.327,6.177
663.592,6.131
663.857,6.089
664.122,6.058
664.388,6.020
664.653,5.988
664.918,5.956
665.183,5.918
665.448,5.885
665.712,5.849
665.977,5.815
666.242,5.773
666.507,5.699
666.772,5.629
667.037,5.559
667.301,5.523
667.566,5.489
667.831,5.468
668.095,5.437
668.360,5.414
668.624,5.365
668.889,5.334
669.153,5.295
669.418,5.274
669.682,5.246
669.946,5.224
670.211,5.213
670.475,5.194
670.739,5.171
671.004,5.144
671.268,5.134
671.532,5.137
671.796,5.082
672.060,5.014
672.324,4.935
672.588,4.913
672.852,4.899
673.116,4.918
673.380,4.933
673.644,4.873
673.908,4.770
674.172,4.669
674.436,4.639
674.700,4.619
674.963,4.595
675.227,4.561
675.491,4.513
675.754,4.467
676.018,4.428
676.282,4.409
676.545,4.377
676.809,4.330
677.072,4.279
677.336,4.234
677.599,4.209
677.863,4.178
678.126,4.154
678.389,4.143
678.653,4.140
678.916,4.130
679.179,4.089
679.442,4.049
679.706,4.018
679.969,3.992
680.232,3.962
680.495,3.940
680.758,3.928
681.021,3.911
681.284,3.874
681.547,3.835
681.810,3.810
682.073,3.809
682.336,3.803
682.599,3.784
682.862,3.755
683.125,3.738
683.388,3.729
683.651,3.712
683.913,3.693
684.176,3.657
684.439,3.615
684.702,3.558
684.964,3.515
685.227,3.492
685.490,3.489
685.752,3.496
686.015,3.485
686.277,3.460
686.540,3.426
686.802,3.386
687.065,3.361
687.327,3.346
687.590,3.342
687.852,3.320
688.115,3.284
688.377,3.250
688.639,3.226
688.902,3.209
689.164,3.196
689.426,3.194
689.689,3.195
689.951,3.181
690.213,3.160
690.475,3.134
690.737,3.103
691.000,3.067
691.262,3.037
691.524,3.026
691.786,3.031
692.048,3.036
692.310,3.021
692.572,2.984
692.834,2.940
693.096,2.920
693.358,2.918
693.620,2.926
693.882,2.929
694.144,2.919
694.406,2.896
694.668,2.870
694.930,2.841
695.192,2.814
695.453,2.793
695.715,2.781
695.977,2.766
696.239,2.743
696.501,2.727
696.762,2.726
697.024,2.723
697.286,2.701
697.548,2.674
697.809,2.654
698.071,2.639
698.333,2.625
698.594,2.608
698.856,2.603
699.118,2.595
699.379,2.583
699.641,2.575
699.902,2.572
700.164,2.565
700.426,2.546
700.687,2.520
700.949,2.506
701.210,2.494
701.472,2.480
701.733,2.456
701.995,2.438
702.256,2.424
702.518,2.415
702.779,2.403
703.041,2.411
703.302,2.426
703.563,2.423
703.825,2.394
704.086,2.364
704.348,2.351
704.609,2.351
704.871,2.355
705.132,2.359
705.393,2.344
705.655,2.325
705.916,2.309
706.177,2.303
706.439,2.299
706.700,2.293
706.961,2.288
707.223,2.281
707.484,2.254
707.745,2.223
708.007,2.191
708.268,2.168
708.529,2.145
708.790,2.111
709.052,2.081
709.313,2.066
709.574,2.062
709.835,2.061
710.097,2.046
710.358,2.019
710.619,1.997
710.881,1.975
711.142,1.962
711.403,1.942
711.664,1.931
711.926,1.914
712.187,1.910
712.448,1.908
712.709,1.918
712.970,1.926
713.232,1.929
713.493,1.921
713.754,1.905
714.015,1.896
714.277,1.897
714.538,1.905
714.799,1.920
715.060,1.928
715.322,1.928
715.583,1.909
715.844,1.888
716.105,1.864
716.367,1.848
716.628,1.842
716.889,1.836
717.150,1.819
717.411,1.788
717.673,1.771
717.934,1.767
718.195,1.770
718.457,1.757
718.718,1.739
718.979,1.729
719.240,1.735
719.502,1.746
719.763,1.755
720.024,1.757
720.286,1.754
720.547,1.735
720.808,1.719
721.069,1.709
721.331,1.719
721.592,1.733
721.853,1.736
722.115,1.732
722.376,1.728
722.638,1.719
722.899,1.710
723.160,1.693
723.422,1.682
723.683,1.674
723.944,1.678
724.206,1.681
724.467,1.678
724.729,1.668
724.990,1.670
725.252,1.679
725.513,1.673
725.775,1.650
726.036,1.630
726.298,1.629
726.559,1.640
726.821,1.644
727.082,1.643
727.344,1.634
727.605,1.630
727.867,1.624
728.128,1.627
728.390,1.627
728.652,1.638
728.913,1.655
729.175,1.668
729.436,1.670
729.698,1.670
729.960,1.668
730.221,1.662
730.483,1.637
730.745,1.626
731.007,1.621
731.268,1.625
731.530,1.629
731.792,1.631
732.054,1.635
732.315,1.639
732.577,1.644
732.839,1.636
733.101,1.620
733.363,1.608
733.625,1.606
733.887,1.611
734.149,1.613
734.411,1.623
734.673,1.629
734.935,1.635
735.197,1.631
735.459,1.635
735.721,1.639
