Wavelength (nm),Intensity W13.3,,C:/Users/Brend/Desktop/LED Spectras v2/Spectrometer Data (White).sp,,,W13.3,
379.792,2.342,,2018-06-15 11:22:34,,Integration Time,237 ms,
380.000,2.335,,Analyze Light,,Number of Scans to Average,25,
380.209,2.328,,,,Smoothing,1,
380.418,2.343
380.627,2.369
380.837,2.391
381.048,2.400
381.259,2.401
381.471,2.403
381.683,2.413
381.896,2.431
382.110,2.438
382.324,2.452
382.538,2.472
382.753,2.494
382.969,2.484
383.185,2.468
383.402,2.455
383.619,2.472
383.837,2.494
384.055,2.528
384.274,2.554
384.493,2.570
384.712,2.576
384.932,2.589
385.153,2.603
385.374,2.618
385.596,2.627
385.818,2.649
386.040,2.674
386.263,2.702
386.487,2.713
386.710,2.710
386.935,2.685
387.159,2.675
387.385,2.668
387.610,2.673
387.836,2.677
388.063,2.690
388.289,2.707
388.517,2.717
388.744,2.716
388.972,2.731
389.201,2.743
389.430,2.764
389.659,2.775
389.889,2.796
390.119,2.816
390.349,2.830
390.580,2.839
390.811,2.843
391.042,2.842
391.274,2.848
391.507,2.857
391.739,2.866
391.972,2.867
392.205,2.882
392.439,2.902
392.673,2.929
392.907,2.944
393.142,2.963
393.377,2.976
393.612,2.994
393.848,3.002
394.084,3.015
394.320,3.019
394.557,3.037
394.794,3.047
395.031,3.071
395.269,3.092
395.507,3.117
395.745,3.120
395.983,3.124
396.222,3.134
396.461,3.172
396.700,3.213
396.940,3.239
397.180,3.237
397.420,3.226
397.660,3.218
397.901,3.217
398.142,3.225
398.383,3.230
398.625,3.229
398.866,3.241
399.108,3.269
399.351,3.319
399.593,3.334
399.836,3.336
400.079,3.319
400.322,3.315
400.566,3.305
400.809,3.311
401.053,3.322
401.298,3.337
401.542,3.345
401.787,3.364
402.031,3.391
402.277,3.422
402.522,3.436
402.767,3.447
403.013,3.436
403.259,3.437
403.505,3.430
403.752,3.438
403.998,3.442
404.245,3.472
404.492,3.503
404.739,3.526
404.986,3.531
405.234,3.536
405.482,3.538
405.730,3.540
405.978,3.551
406.226,3.561
406.475,3.562
406.723,3.564
406.972,3.584
407.221,3.613
407.470,3.622
407.720,3.629
407.969,3.619
408.219,3.638
408.469,3.658
408.719,3.688
408.969,3.696
409.219,3.712
409.470,3.729
409.720,3.754
409.971,3.772
410.222,3.798
410.473,3.813
410.724,3.817
410.976,3.817
411.227,3.832
411.479,3.845
411.731,3.859
411.983,3.859
412.235,3.867
412.487,3.870
412.740,3.887
412.992,3.897
413.245,3.911
413.497,3.912
413.750,3.916
414.003,3.912
414.257,3.917
414.510,3.924
414.763,3.952
415.017,3.970
415.270,3.989
415.524,3.989
415.778,3.994
416.032,3.996
416.286,4.018
416.540,4.038
416.794,4.070
417.049,4.078
417.303,4.087
417.558,4.090
417.812,4.107
418.067,4.121
418.322,4.129
418.577,4.122
418.832,4.122
419.088,4.115
419.343,4.128
419.598,4.128
419.854,4.142
420.109,4.151
420.365,4.185
420.621,4.207
420.876,4.234
421.132,4.242
421.388,4.256
421.645,4.259
421.901,4.275
422.157,4.288
422.413,4.312
422.670,4.326
422.926,4.343
423.183,4.350
423.439,4.378
423.696,4.411
423.953,4.477
424.210,4.538
424.467,4.569
424.724,4.570
424.981,4.567
425.238,4.599
425.495,4.665
425.753,4.728
426.010,4.785
426.267,4.826
426.525,4.890
426.782,4.945
427.040,5.006
427.298,5.064
427.555,5.148
427.813,5.225
428.071,5.301
428.329,5.372
428.587,5.452
428.845,5.537
429.103,5.632
429.361,5.722
429.619,5.812
429.878,5.901
430.136,6.012
430.394,6.134
430.653,6.293
430.911,6.457
431.170,6.628
431.428,6.761
431.687,6.890
431.946,7.016
432.204,7.165
432.463,7.325
432.722,7.502
432.981,7.690
433.240,7.899
433.499,8.112
433.758,8.342
434.017,8.553
434.276,8.767
434.535,8.967
434.794,9.199
435.053,9.447
435.312,9.721
435.572,9.985
435.831,10.268
436.090,10.569
436.350,10.897
436.609,11.231
436.869,11.564
437.128,11.892
437.388,12.224
437.647,12.566
437.907,12.940
438.166,13.324
438.426,13.732
438.686,14.145
438.946,14.587
439.205,15.041
439.465,15.530
439.725,16.031
439.985,16.544
440.245,17.048
440.505,17.564
440.765,18.087
441.025,18.627
441.285,19.178
441.545,19.759
441.805,20.349
442.065,20.957
442.325,21.593
442.585,22.274
442.846,22.983
443.106,23.726
443.366,24.493
443.626,25.294
443.887,26.119
444.147,26.973
444.407,27.859
444.668,28.774
444.928,29.714
445.189,30.723
445.449,31.770
445.710,32.866
445.970,33.996
446.231,35.190
446.491,36.459
446.752,37.772
447.012,39.122
447.273,40.529
447.534,41.974
447.794,43.469
448.055,45.010
448.316,46.641
448.577,48.353
448.837,50.134
449.098,51.978
449.359,53.875
449.620,55.785
449.881,57.722
450.142,59.678
450.403,61.708
450.664,63.796
450.924,65.929
451.185,68.053
451.446,70.169
451.707,72.272
451.969,74.409
452.230,76.515
452.491,78.575
452.752,80.536
453.013,82.367
453.274,84.002
453.535,85.385
453.796,86.512
454.058,87.458
454.319,88.274
454.580,89.001
454.841,89.640
455.103,90.197
455.364,90.660
455.625,91.057
455.887,91.379
456.148,91.641
456.409,91.832
456.671,91.964
456.932,92.039
457.194,92.060
457.455,92.036
457.716,91.975
457.978,91.880
458.239,91.739
458.501,91.556
458.763,91.321
459.024,91.038
459.286,90.696
459.547,90.302
459.809,89.837
460.071,89.290
460.332,88.671
460.594,87.978
460.856,87.236
461.117,86.391
461.379,85.435
461.641,84.331
461.903,83.073
462.164,81.684
462.426,80.228
462.688,78.769
462.950,77.320
463.212,75.871
463.474,74.408
463.736,72.945
463.998,71.524
464.260,70.171
464.522,68.897
464.784,67.678
465.046,66.499
465.308,65.403
465.570,64.378
465.832,63.438
466.094,62.539
466.356,61.669
466.618,60.820
466.880,59.974
467.142,59.167
467.405,58.394
467.667,57.686
467.929,57.024
468.191,56.394
468.454,55.774
468.716,55.142
468.978,54.496
469.241,53.840
469.503,53.202
469.765,52.605
470.028,52.039
470.290,51.477
470.552,50.911
470.815,50.337
471.077,49.773
471.340,49.212
471.602,48.640
471.865,48.060
472.128,47.445
472.390,46.848
472.653,46.242
472.915,45.649
473.178,45.039
473.441,44.414
473.703,43.771
473.966,43.105
474.229,42.404
474.492,41.678
474.755,40.931
475.017,40.233
475.280,39.568
475.543,38.939
475.806,38.266
476.069,37.561
476.332,36.842
476.595,36.152
476.858,35.483
477.121,34.826
477.384,34.183
477.647,33.579
477.910,32.996
478.173,32.445
478.436,31.892
478.699,31.369
478.962,30.850
479.226,30.374
479.489,29.894
479.752,29.429
480.015,28.964
480.279,28.526
480.542,28.090
480.805,27.667
481.069,27.260
481.332,26.885
481.595,26.527
481.859,26.222
482.122,25.930
482.386,25.652
482.649,25.346
482.913,25.042
483.177,24.747
483.440,24.482
483.704,24.248
483.967,24.051
484.231,23.869
484.495,23.713
484.759,23.555
485.022,23.385
485.286,23.194
485.550,22.994
485.814,22.779
486.078,22.585
486.342,22.423
486.606,22.307
486.869,22.191
487.133,22.073
487.397,21.959
487.662,21.854
487.926,21.732
488.190,21.610
488.454,21.487
488.718,21.383
488.982,21.269
489.246,21.163
489.511,21.042
489.775,20.938
490.039,20.828
490.304,20.730
490.568,20.609
490.832,20.511
491.097,20.420
491.361,20.366
491.626,20.306
491.890,20.264
492.155,20.208
492.419,20.170
492.684,20.114
492.949,20.066
493.213,20.032
493.478,20.032
493.743,20.026
494.008,19.989
494.272,19.945
494.537,19.940
494.802,19.955
495.067,19.991
495.332,20.014
495.597,20.052
495.862,20.078
496.127,20.133
496.392,20.184
496.657,20.245
496.922,20.292
497.187,20.367
497.452,20.465
497.718,20.598
497.983,20.717
498.248,20.822
498.513,20.901
498.779,21.004
499.044,21.098
499.310,21.180
499.575,21.238
499.841,21.330
500.106,21.438
500.372,21.559
500.637,21.688
500.903,21.849
501.168,21.997
501.434,22.134
501.700,22.233
501.966,22.352
502.231,22.464
502.497,22.589
502.763,22.698
503.029,22.814
503.295,22.946
503.561,23.105
503.827,23.275
504.093,23.438
504.359,23.575
504.625,23.719
504.891,23.856
505.157,24.016
505.423,24.149
505.690,24.267
505.956,24.369
506.222,24.496
506.489,24.659
506.755,24.859
507.021,25.052
507.288,25.235
507.554,25.379
507.821,25.515
508.087,25.651
508.354,25.815
508.621,25.969
508.887,26.111
509.154,26.241
509.421,26.401
509.687,26.556
509.954,26.709
510.221,26.843
510.488,27.001
510.755,27.154
511.022,27.311
511.289,27.440
511.556,27.566
511.823,27.680
512.090,27.815
512.357,27.946
512.624,28.086
512.891,28.208
513.159,28.335
513.426,28.467
513.693,28.603
513.960,28.729
514.228,28.843
514.495,28.948
514.763,29.066
515.030,29.193
515.298,29.316
515.565,29.436
515.833,29.550
516.100,29.658
516.368,29.763
516.636,29.846
516.904,29.951
517.171,30.045
517.439,30.166
517.707,30.276
517.975,30.414
518.243,30.549
518.511,30.681
518.779,30.773
519.047,30.887
519.315,30.996
519.583,31.102
519.851,31.173
520.119,31.253
520.387,31.340
520.656,31.444
520.924,31.550
521.192,31.666
521.461,31.759
521.729,31.842
521.997,31.908
522.266,31.986
522.534,32.048
522.803,32.125
523.071,32.201
523.340,32.302
523.609,32.394
523.877,32.485
524.146,32.564
524.415,32.643
524.684,32.713
524.952,32.781
525.221,32.854
525.490,32.959
525.759,33.062
526.028,33.145
526.297,33.178
526.566,33.215
526.835,33.276
527.104,33.369
527.373,33.465
527.642,33.547
527.912,33.586
528.181,33.617
528.450,33.647
528.719,33.699
528.989,33.752
529.258,33.814
529.528,33.876
529.797,33.939
530.067,34.003
530.336,34.056
530.606,34.086
530.875,34.091
531.145,34.096
531.414,34.129
531.684,34.192
531.954,34.238
532.224,34.258
532.493,34.257
532.763,34.260
533.033,34.292
533.303,34.328
533.573,34.382
533.843,34.394
534.113,34.411
534.383,34.414
534.653,34.449
534.923,34.494
535.193,34.543
535.463,34.589
535.733,34.618
536.004,34.644
536.274,34.663
536.544,34.677
536.814,34.695
537.085,34.715
537.355,34.765
537.626,34.818
537.896,34.860
538.166,34.884
538.437,34.906
538.707,34.927
538.978,34.974
539.249,35.043
539.519,35.131
539.790,35.192
540.061,35.242
540.331,35.281
540.602,35.324
540.873,35.329
541.144,35.327
541.414,35.319
541.685,35.353
541.956,35.396
542.227,35.443
542.498,35.473
542.769,35.516
543.040,35.557
543.311,35.622
543.582,35.685
543.853,35.750
544.124,35.803
544.396,35.861
544.667,35.910
544.938,35.944
545.209,35.913
545.480,35.885
545.752,35.845
546.023,35.843
546.294,35.802
546.566,35.755
546.837,35.704
547.109,35.692
547.380,35.687
547.652,35.689
547.923,35.684
548.195,35.697
548.466,35.711
548.738,35.737
549.009,35.731
549.281,35.711
549.553,35.665
549.824,35.619
550.096,35.595
550.368,35.601
550.640,35.638
550.911,35.666
551.183,35.694
551.455,35.711
551.727,35.707
551.999,35.662
552.271,35.589
552.543,35.537
552.815,35.506
553.087,35.500
553.359,35.491
553.631,35.481
553.903,35.448
554.175,35.414
554.447,35.369
554.719,35.329
554.991,35.285
555.263,35.241
555.535,35.184
555.808,35.132
556.080,35.099
556.352,35.093
556.624,35.092
556.897,35.070
557.169,35.026
557.441,34.961
557.714,34.876
557.986,34.797
558.258,34.740
558.531,34.739
558.803,34.756
559.076,34.776
559.348,34.755
559.621,34.703
559.893,34.627
560.166,34.555
560.438,34.493
560.711,34.440
560.983,34.399
561.256,34.380
561.528,34.361
561.801,34.349
562.074,34.318
562.346,34.303
562.619,34.276
562.892,34.240
563.164,34.192
563.437,34.163
563.710,34.136
563.983,34.103
564.255,34.064
564.528,34.067
564.801,34.091
565.074,34.122
565.346,34.105
565.619,34.064
565.892,33.999
566.165,33.919
566.438,33.812
566.711,33.709
566.984,33.632
567.257,33.583
567.529,33.549
567.802,33.537
568.075,33.520
568.348,33.493
568.621,33.452
568.894,33.396
569.167,33.327
569.440,33.252
569.713,33.161
569.986,33.070
570.259,32.967
570.532,32.897
570.805,32.834
571.078,32.774
571.351,32.691
571.625,32.610
571.898,32.524
572.171,32.455
572.444,32.379
572.717,32.310
572.990,32.226
573.263,32.121
573.536,31.995
573.809,31.877
574.083,31.784
574.356,31.725
574.629,31.697
574.902,31.677
575.175,31.639
575.448,31.559
575.721,31.453
575.995,31.367
576.268,31.285
576.541,31.225
576.814,31.151
577.087,31.091
577.361,31.036
577.634,30.987
577.907,30.925
578.180,30.843
578.453,30.759
578.727,30.691
579.000,30.622
579.273,30.572
579.546,30.534
579.820,30.517
580.093,30.470
580.366,30.398
580.639,30.301
580.913,30.219
581.186,30.140
581.459,30.076
581.732,29.993
582.005,29.910
582.279,29.801
582.552,29.693
582.825,29.573
583.098,29.469
583.372,29.391
583.645,29.358
583.918,29.338
584.191,29.319
584.464,29.292
584.738,29.262
585.011,29.205
585.284,29.123
585.557,29.025
585.831,28.942
586.104,28.868
586.377,28.815
586.650,28.750
586.923,28.684
587.196,28.617
587.470,28.557
587.743,28.496
588.016,28.442
588.289,28.385
588.562,28.329
588.835,28.233
589.109,28.112
589.382,27.989
589.655,27.888
589.928,27.820
590.201,27.761
590.474,27.729
590.747,27.707
591.020,27.676
591.293,27.616
591.567,27.526
591.840,27.405
592.113,27.266
592.386,27.126
592.659,26.993
592.932,26.890
593.205,26.802
593.478,26.740
593.751,26.670
594.024,26.617
594.297,26.545
594.570,26.475
594.843,26.389
595.116,26.316
595.389,26.233
595.662,26.141
595.934,26.031
596.207,25.927
596.480,25.831
596.753,25.764
597.026,25.696
597.299,25.627
597.572,25.539
597.844,25.443
598.117,25.323
598.390,25.187
598.663,25.027
598.936,24.879
599.208,24.742
599.481,24.637
599.754,24.546
600.026,24.451
600.299,24.362
600.572,24.277
600.844,24.189
601.117,24.085
601.390,23.961
601.662,23.845
601.935,23.709
602.207,23.572
602.480,23.420
602.752,23.289
603.025,23.141
603.297,23.013
603.570,22.912
603.842,22.859
604.115,22.797
604.387,22.721
604.660,22.607
604.932,22.500
605.204,22.386
605.477,22.280
605.749,22.165
606.021,22.041
606.294,21.918
606.566,21.784
606.838,21.671
607.110,21.570
607.383,21.496
607.655,21.431
607.927,21.379
608.199,21.319
608.471,21.238
608.743,21.131
609.015,21.016
609.287,20.897
609.559,20.776
609.831,20.662
610.103,20.537
610.375,20.404
610.647,20.253
610.919,20.104
611.191,19.967
611.463,19.844
611.735,19.715
612.007,19.575
612.278,19.425
612.550,19.286
612.822,19.151
613.094,19.020
613.365,18.876
613.637,18.741
613.909,18.603
614.180,18.484
614.452,18.355
614.723,18.234
614.995,18.102
615.266,17.999
615.538,17.916
615.809,17.846
616.081,17.742
616.352,17.623
616.623,17.491
616.895,17.365
617.166,17.227
617.437,17.089
617.709,16.961
617.980,16.854
618.251,16.763
618.522,16.693
618.793,16.628
619.065,16.585
619.336,16.510
619.607,16.427
619.878,16.324
620.149,16.242
620.420,16.133
620.691,16.000
620.962,15.868
621.232,15.771
621.503,15.677
621.774,15.590
622.045,15.504
622.316,15.449
622.586,15.394
622.857,15.338
623.128,15.247
623.398,15.153
623.669,15.043
623.940,14.936
624.210,14.814
624.481,14.714
624.751,14.616
625.021,14.524
625.292,14.417
625.562,14.346
625.833,14.278
626.103,14.224
626.373,14.146
626.643,14.074
626.914,13.987
627.184,13.909
627.454,13.824
627.724,13.749
627.994,13.677
628.264,13.607
628.534,13.526
628.804,13.436
629.074,13.365
629.344,13.305
629.614,13.260
629.884,13.207
630.154,13.154
630.424,13.095
630.693,13.029
630.963,12.952
631.233,12.867
631.502,12.793
631.772,12.740
632.041,12.674
632.311,12.579
632.581,12.466
632.850,12.358
633.119,12.264
633.389,12.185
633.658,12.127
633.928,12.108
634.197,12.100
634.466,12.088
634.735,12.053
635.004,11.982
635.274,11.896
635.543,11.798
635.812,11.718
636.081,11.648
636.350,11.592
636.619,11.536
636.888,11.479
637.157,11.410
637.426,11.353
637.694,11.297
637.963,11.245
638.232,11.197
638.501,11.137
638.769,11.088
639.038,11.037
639.307,10.992
639.575,10.933
639.844,10.841
640.112,10.746
640.381,10.646
640.649,10.572
640.917,10.516
641.186,10.463
641.454,10.414
641.722,10.354
641.991,10.300
642.259,10.232
642.527,10.166
642.795,10.107
643.063,10.041
643.331,9.981
643.599,9.928
643.867,9.905
644.135,9.872
644.403,9.839
644.671,9.780
644.939,9.730
645.206,9.673
645.474,9.629
645.742,9.573
646.009,9.505
646.277,9.443
646.545,9.386
646.812,9.344
647.080,9.299
647.347,9.249
647.615,9.182
647.882,9.100
648.149,9.016
648.417,8.938
648.684,8.881
648.951,8.844
649.219,8.820
649.486,8.786
649.753,8.742
650.020,8.677
650.287,8.609
650.554,8.526
650.821,8.453
651.088,8.377
651.355,8.330
651.622,8.278
651.889,8.244
652.155,8.196
652.422,8.158
652.689,8.112
652.956,8.066
653.222,8.022
653.489,7.998
653.755,7.956
654.022,7.883
654.288,7.779
654.555,7.686
654.821,7.623
655.088,7.578
655.354,7.540
655.620,7.507
655.887,7.459
656.153,7.403
656.419,7.331
656.685,7.265
656.951,7.205
657.217,7.155
657.483,7.109
657.749,7.061
658.015,7.010
658.281,6.953
658.547,6.888
658.813,6.824
659.079,6.761
659.345,6.705
659.610,6.654
659.876,6.606
660.142,6.562
660.407,6.517
660.673,6.474
660.939,6.445
661.204,6.408
661.470,6.372
661.735,6.328
662.000,6.302
662.266,6.265
662.531,6.214
662.796,6.147
663.062,6.084
663.327,6.026
663.592,5.977
663.857,5.934
664.122,5.898
664.388,5.861
664.653,5.830
664.918,5.800
665.183,5.764
665.448,5.731
665.712,5.703
665.977,5.679
666.242,5.649
666.507,5.578
666.772,5.505
667.037,5.439
667.301,5.414
667.566,5.385
667.831,5.355
668.095,5.311
668.360,5.270
668.624,5.207
668.889,5.167
669.153,5.128
669.418,5.110
669.682,5.086
669.946,5.065
670.211,5.050
670.475,5.036
670.739,5.025
671.004,5.017
671.268,5.015
671.532,5.022
671.796,4.967
672.060,4.897
672.324,4.809
672.588,4.775
672.852,4.753
673.116,4.772
673.380,4.803
673.644,4.747
673.908,4.642
674.172,4.527
674.436,4.501
674.700,4.489
674.963,4.473
675.227,4.443
675.491,4.391
675.754,4.338
676.018,4.289
676.282,4.263
676.545,4.238
676.809,4.202
677.072,4.155
677.336,4.107
677.599,4.075
677.863,4.048
678.126,4.033
678.389,4.028
678.653,4.032
678.916,4.025
679.179,3.985
679.442,3.936
679.706,3.901
679.969,3.881
680.232,3.869
680.495,3.855
680.758,3.843
681.021,3.814
681.284,3.769
681.547,3.721
681.810,3.696
682.073,3.694
682.336,3.690
682.599,3.671
682.862,3.646
683.125,3.635
683.388,3.633
683.651,3.626
683.913,3.605
684.176,3.556
684.439,3.502
684.702,3.448
684.964,3.420
685.227,3.400
685.490,3.395
685.752,3.398
686.015,3.388
686.277,3.361
686.540,3.321
686.802,3.284
687.065,3.261
687.327,3.252
687.590,3.244
687.852,3.224
688.115,3.184
688.377,3.150
688.639,3.127
688.902,3.116
689.164,3.107
689.426,3.107
689.689,3.101
689.951,3.081
690.213,3.044
690.475,3.013
690.737,2.994
691.000,2.973
691.262,2.953
691.524,2.941
691.786,2.945
692.048,2.954
692.310,2.943
692.572,2.906
692.834,2.864
693.096,2.841
693.358,2.841
693.620,2.849
693.882,2.855
694.144,2.845
694.406,2.816
694.668,2.783
694.930,2.751
695.192,2.726
695.453,2.704
695.715,2.693
695.977,2.678
696.239,2.653
696.501,2.636
696.762,2.635
697.024,2.641
697.286,2.624
697.548,2.603
697.809,2.581
698.071,2.567
698.333,2.551
698.594,2.536
698.856,2.529
699.118,2.520
699.379,2.508
699.641,2.500
699.902,2.496
700.164,2.485
700.426,2.466
700.687,2.438
700.949,2.422
701.210,2.404
701.472,2.390
701.733,2.369
701.995,2.361
702.256,2.356
702.518,2.350
702.779,2.334
703.041,2.338
703.302,2.352
703.563,2.349
703.825,2.327
704.086,2.297
704.348,2.285
704.609,2.281
704.871,2.290
705.132,2.299
705.393,2.285
705.655,2.267
705.916,2.256
706.177,2.255
706.439,2.250
706.700,2.237
706.961,2.226
707.223,2.213
707.484,2.183
707.745,2.153
708.007,2.123
708.268,2.099
708.529,2.075
708.790,2.041
709.052,2.013
709.313,1.997
709.574,1.994
709.835,1.997
710.097,1.986
710.358,1.958
710.619,1.929
710.881,1.905
711.142,1.892
711.403,1.875
711.664,1.862
711.926,1.839
712.187,1.832
712.448,1.833
712.709,1.846
712.970,1.853
713.232,1.853
713.493,1.850
713.754,1.847
714.015,1.847
714.277,1.853
714.538,1.861
714.799,1.873
715.060,1.877
715.322,1.874
715.583,1.856
715.844,1.838
716.105,1.817
716.367,1.799
716.628,1.786
716.889,1.777
717.150,1.764
717.411,1.743
717.673,1.728
717.934,1.722
718.195,1.721
718.457,1.707
718.718,1.685
718.979,1.673
719.240,1.678
719.502,1.696
719.763,1.708
720.024,1.708
720.286,1.697
720.547,1.677
720.808,1.659
721.069,1.648
721.331,1.653
721.592,1.671
721.853,1.680
722.115,1.684
722.376,1.678
722.638,1.670
722.899,1.662
723.160,1.647
723.422,1.631
723.683,1.618
723.944,1.623
724.206,1.625
724.467,1.621
724.729,1.610
724.990,1.617
725.252,1.628
725.513,1.621
725.775,1.596
726.036,1.578
726.298,1.575
726.559,1.584
726.821,1.583
727.082,1.581
727.344,1.575
727.605,1.573
727.867,1.568
728.128,1.574
728.390,1.577
728.652,1.592
728.913,1.608
729.175,1.619
729.436,1.618
729.698,1.615
729.960,1.607
730.221,1.595
730.483,1.571
730.745,1.562
731.007,1.562
731.268,1.562
731.530,1.562
731.792,1.564
732.054,1.576
732.315,1.586
732.577,1.593
732.839,1.582
733.101,1.561
733.363,1.545
733.625,1.540
733.887,1.547
734.149,1.548
734.411,1.560
734.673,1.571
734.935,1.579
735.197,1.576
735.459,1.577
735.721,1.580
735.983,1.574
