Wavelength (nm),Intensity W15.3,,C:/Users/Brend/Desktop/LED Spectras v2/Spectrometer Data (White).sp,,,W15.3,
379.792,2.413,,2018-06-15 12:30:31,,Integration Time,264 ms,
380.000,2.403,,Analyze Light,,Number of Scans to Average,25,
380.209,2.392,,,,Smoothing,1,
380.418,2.409
380.627,2.437
380.837,2.467
381.048,2.483
381.259,2.485
381.471,2.481
381.683,2.479
381.896,2.489
382.110,2.494
382.324,2.517
382.538,2.548
382.753,2.577
382.969,2.562
383.185,2.540
383.402,2.517
383.619,2.532
383.837,2.553
384.055,2.591
384.274,2.625
384.493,2.645
384.712,2.647
384.932,2.647
385.153,2.653
385.374,2.669
385.596,2.686
385.818,2.719
386.040,2.755
386.263,2.786
386.487,2.793
386.710,2.785
386.935,2.759
387.159,2.748
387.385,2.736
387.610,2.738
387.836,2.740
388.063,2.753
388.289,2.766
388.517,2.776
388.744,2.778
388.972,2.798
389.201,2.814
389.430,2.838
389.659,2.851
389.889,2.869
390.119,2.877
390.349,2.885
390.580,2.901
390.811,2.915
391.042,2.924
391.274,2.934
391.507,2.945
391.739,2.946
391.972,2.936
392.205,2.945
392.439,2.967
392.673,2.993
392.907,3.005
393.142,3.029
393.377,3.049
393.612,3.077
393.848,3.085
394.084,3.100
394.320,3.104
394.557,3.124
394.794,3.137
395.031,3.157
395.269,3.172
395.507,3.193
395.745,3.197
395.983,3.202
396.222,3.208
396.461,3.237
396.700,3.272
396.940,3.297
397.180,3.301
397.420,3.287
397.660,3.276
397.901,3.272
398.142,3.280
398.383,3.284
398.625,3.283
398.866,3.302
399.108,3.343
399.351,3.402
399.593,3.414
399.836,3.408
400.079,3.381
400.322,3.372
400.566,3.360
400.809,3.361
401.053,3.368
401.298,3.383
401.542,3.407
401.787,3.441
402.031,3.471
402.277,3.493
402.522,3.498
402.767,3.507
403.013,3.497
403.259,3.500
403.505,3.497
403.752,3.502
403.998,3.500
404.245,3.524
404.492,3.552
404.739,3.580
404.986,3.592
405.234,3.607
405.482,3.611
405.730,3.610
405.978,3.611
406.226,3.609
406.475,3.603
406.723,3.601
406.972,3.626
407.221,3.665
407.470,3.691
407.720,3.708
407.969,3.699
408.219,3.718
408.469,3.736
408.719,3.765
408.969,3.768
409.219,3.780
409.470,3.792
409.720,3.818
409.971,3.840
410.222,3.870
410.473,3.880
410.724,3.879
410.976,3.879
411.227,3.901
411.479,3.921
411.731,3.938
411.983,3.933
412.235,3.938
412.487,3.938
412.740,3.956
412.992,3.966
413.245,3.986
413.497,3.987
413.750,3.995
414.003,3.992
414.257,3.996
414.510,3.992
414.763,4.006
415.017,4.021
415.270,4.040
415.524,4.041
415.778,4.045
416.032,4.053
416.286,4.085
416.540,4.109
416.794,4.136
417.049,4.142
417.303,4.154
417.558,4.163
417.812,4.174
418.067,4.186
418.322,4.204
418.577,4.212
418.832,4.216
419.088,4.202
419.343,4.209
419.598,4.204
419.854,4.212
420.109,4.217
420.365,4.249
420.621,4.270
420.876,4.296
421.132,4.309
421.388,4.319
421.645,4.319
421.901,4.335
422.157,4.355
422.413,4.383
422.670,4.396
422.926,4.414
423.183,4.410
423.439,4.428
423.696,4.451
423.953,4.524
424.210,4.590
424.467,4.626
424.724,4.620
424.981,4.611
425.238,4.629
425.495,4.691
425.753,4.751
426.010,4.810
426.267,4.849
426.525,4.914
426.782,4.977
427.040,5.045
427.298,5.109
427.555,5.191
427.813,5.265
428.071,5.336
428.329,5.396
428.587,5.463
428.845,5.535
429.103,5.618
429.361,5.697
429.619,5.783
429.878,5.867
430.136,5.980
430.394,6.090
430.653,6.237
430.911,6.396
431.170,6.568
431.428,6.708
431.687,6.828
431.946,6.946
432.204,7.082
432.463,7.241
432.722,7.407
432.981,7.577
433.240,7.772
433.499,7.971
433.758,8.192
434.017,8.384
434.276,8.582
434.535,8.767
434.794,8.976
435.053,9.216
435.312,9.483
435.572,9.750
435.831,10.017
436.090,10.292
436.350,10.592
436.609,10.918
436.869,11.260
437.128,11.598
437.388,11.925
437.647,12.266
437.907,12.637
438.166,13.009
438.426,13.377
438.686,13.757
438.946,14.171
439.205,14.617
439.465,15.083
439.725,15.570
439.985,16.063
440.245,16.542
440.505,17.032
440.765,17.527
441.025,18.042
441.285,18.561
441.545,19.109
441.805,19.674
442.065,20.256
442.325,20.841
442.585,21.472
442.846,22.116
443.106,22.818
443.366,23.533
443.626,24.282
443.887,25.035
444.147,25.815
444.407,26.617
444.668,27.457
444.928,28.324
445.189,29.264
445.449,30.252
445.710,31.292
445.970,32.358
446.231,33.474
446.491,34.638
446.752,35.849
447.012,37.109
447.273,38.449
447.534,39.841
447.794,41.276
448.055,42.757
448.316,44.342
448.577,46.021
448.837,47.755
449.098,49.536
449.359,51.373
449.620,53.270
449.881,55.224
450.142,57.224
450.403,59.305
450.664,61.441
450.924,63.636
451.185,65.836
451.446,68.065
451.707,70.293
451.969,72.545
452.230,74.769
452.491,76.959
452.752,79.075
453.013,81.086
453.274,82.936
453.535,84.551
453.796,85.894
454.058,87.004
454.319,87.938
454.580,88.763
454.841,89.481
455.103,90.114
455.364,90.642
455.625,91.084
455.887,91.435
456.148,91.717
456.409,91.931
456.671,92.084
456.932,92.174
457.194,92.192
457.455,92.151
457.716,92.061
457.978,91.942
458.239,91.778
458.501,91.566
458.763,91.293
459.024,90.946
459.286,90.525
459.547,90.035
459.809,89.455
460.071,88.793
460.332,88.053
460.594,87.263
460.856,86.379
461.117,85.349
461.379,84.139
461.641,82.755
461.903,81.244
462.164,79.673
462.426,78.101
462.688,76.570
462.950,75.087
463.212,73.657
463.474,72.241
463.736,70.850
463.998,69.517
464.260,68.274
464.522,67.123
464.784,66.020
465.046,64.941
465.308,63.910
465.570,62.937
465.832,62.046
466.094,61.218
466.356,60.459
466.618,59.743
466.880,59.048
467.142,58.365
467.405,57.743
467.667,57.182
467.929,56.648
468.191,56.111
468.454,55.558
468.716,55.022
468.978,54.481
469.241,53.930
469.503,53.389
469.765,52.863
470.028,52.328
470.290,51.752
470.552,51.157
470.815,50.578
471.077,50.008
471.340,49.434
471.602,48.851
471.865,48.272
472.128,47.678
472.390,47.071
472.653,46.437
472.915,45.773
473.178,45.100
473.441,44.431
473.703,43.765
473.966,43.088
474.229,42.378
474.492,41.652
474.755,40.890
475.017,40.155
475.280,39.437
475.543,38.777
475.806,38.091
476.069,37.406
476.332,36.692
476.595,36.005
476.858,35.331
477.121,34.661
477.384,34.019
477.647,33.410
477.910,32.832
478.173,32.262
478.436,31.690
478.699,31.171
478.962,30.677
479.226,30.233
479.489,29.786
479.752,29.363
480.015,28.934
480.279,28.523
480.542,28.124
480.805,27.753
481.069,27.395
481.332,27.060
481.595,26.736
481.859,26.462
482.122,26.191
482.386,25.938
482.649,25.669
482.913,25.413
483.177,25.136
483.440,24.872
483.704,24.630
483.967,24.465
484.231,24.329
484.495,24.211
484.759,24.063
485.022,23.899
485.286,23.731
485.550,23.571
485.814,23.378
486.078,23.188
486.342,23.015
486.606,22.891
486.869,22.776
487.133,22.686
487.397,22.623
487.662,22.567
487.926,22.473
488.190,22.359
488.454,22.221
488.718,22.095
488.982,21.951
489.246,21.839
489.511,21.725
489.775,21.624
490.039,21.518
490.304,21.414
490.568,21.307
490.832,21.214
491.097,21.140
491.361,21.084
491.626,21.019
491.890,20.959
492.155,20.895
492.419,20.860
492.684,20.810
492.949,20.766
493.213,20.746
493.478,20.767
493.743,20.780
494.008,20.747
494.272,20.705
494.537,20.710
494.802,20.744
495.067,20.803
495.332,20.857
495.597,20.931
495.862,20.982
496.127,21.037
496.392,21.067
496.657,21.089
496.922,21.110
497.187,21.173
497.452,21.275
497.718,21.419
497.983,21.546
498.248,21.669
498.513,21.758
498.779,21.883
499.044,22.015
499.310,22.149
499.575,22.242
499.841,22.343
500.106,22.453
500.372,22.578
500.637,22.719
500.903,22.901
501.168,23.068
501.434,23.199
501.700,23.293
501.966,23.418
502.231,23.558
502.497,23.710
502.763,23.834
503.029,23.959
503.295,24.085
503.561,24.236
503.827,24.399
504.093,24.565
504.359,24.712
504.625,24.877
504.891,25.025
505.157,25.193
505.423,25.314
505.690,25.435
505.956,25.558
506.222,25.729
506.489,25.929
506.755,26.136
507.021,26.315
507.288,26.490
507.554,26.634
507.821,26.795
508.087,26.946
508.354,27.126
508.621,27.278
508.887,27.423
509.154,27.557
509.421,27.704
509.687,27.839
509.954,27.975
510.221,28.115
510.488,28.296
510.755,28.482
511.022,28.677
511.289,28.829
511.556,28.969
511.823,29.089
512.090,29.231
512.357,29.352
512.624,29.480
512.891,29.599
513.159,29.743
513.426,29.883
513.693,30.030
513.960,30.154
514.228,30.284
514.495,30.396
514.763,30.517
515.030,30.636
515.298,30.776
515.565,30.928
515.833,31.081
516.100,31.198
516.368,31.290
516.636,31.354
516.904,31.446
517.171,31.530
517.439,31.636
517.707,31.727
517.975,31.846
518.243,31.969
518.511,32.096
518.779,32.179
519.047,32.276
519.315,32.374
519.583,32.483
519.851,32.564
520.119,32.650
520.387,32.761
520.656,32.880
520.924,32.995
521.192,33.100
521.461,33.193
521.729,33.279
521.997,33.362
522.266,33.457
522.534,33.547
522.803,33.649
523.071,33.743
523.340,33.840
523.609,33.916
523.877,33.992
524.146,34.064
524.415,34.152
524.684,34.243
524.952,34.342
525.221,34.431
525.490,34.536
525.759,34.636
526.028,34.735
526.297,34.778
526.566,34.811
526.835,34.839
527.104,34.905
527.373,34.973
527.642,35.038
527.912,35.076
528.181,35.118
528.450,35.167
528.719,35.231
528.989,35.307
529.258,35.401
529.528,35.471
529.797,35.507
530.067,35.525
530.336,35.552
530.606,35.591
530.875,35.610
531.145,35.645
531.414,35.681
531.684,35.728
531.954,35.747
532.224,35.756
532.493,35.754
532.763,35.764
533.033,35.800
533.303,35.848
533.573,35.900
533.843,35.912
534.113,35.922
534.383,35.916
534.653,35.954
534.923,36.017
535.193,36.104
535.463,36.164
535.733,36.194
536.004,36.197
536.274,36.200
536.544,36.202
536.814,36.221
537.085,36.250
537.355,36.308
537.626,36.372
537.896,36.430
538.166,36.456
538.437,36.485
538.707,36.521
538.978,36.589
539.249,36.681
539.519,36.779
539.790,36.839
540.061,36.873
540.331,36.893
540.602,36.928
540.873,36.946
541.144,36.969
541.414,36.975
541.685,36.994
541.956,36.991
542.227,37.009
542.498,37.028
542.769,37.080
543.040,37.155
543.311,37.245
543.582,37.338
543.853,37.403
544.124,37.451
544.396,37.482
544.667,37.509
544.938,37.512
545.209,37.450
545.480,37.395
545.752,37.360
546.023,37.368
546.294,37.338
546.566,37.304
546.837,37.275
547.109,37.274
547.380,37.277
547.652,37.268
547.923,37.255
548.195,37.262
548.466,37.289
548.738,37.307
549.009,37.274
549.281,37.230
549.553,37.172
549.824,37.110
550.096,37.063
550.368,37.055
550.640,37.080
550.911,37.105
551.183,37.137
551.455,37.163
551.727,37.159
551.999,37.104
552.271,37.023
552.543,36.963
552.815,36.930
553.087,36.938
553.359,36.955
553.631,36.953
553.903,36.911
554.175,36.862
554.447,36.825
554.719,36.798
554.991,36.757
555.263,36.714
555.535,36.681
555.808,36.675
556.080,36.666
556.352,36.647
556.624,36.595
556.897,36.522
557.169,36.438
557.441,36.350
557.714,36.271
557.986,36.228
558.258,36.211
558.531,36.233
558.803,36.237
559.076,36.227
559.348,36.176
559.621,36.111
559.893,36.038
560.166,35.992
560.438,35.960
560.711,35.953
560.983,35.943
561.256,35.956
561.528,35.963
561.801,35.957
562.074,35.932
562.346,35.893
562.619,35.830
562.892,35.754
563.164,35.672
563.437,35.630
563.710,35.587
563.983,35.541
564.255,35.485
564.528,35.468
564.801,35.480
565.074,35.498
565.346,35.471
565.619,35.423
565.892,35.357
566.165,35.293
566.438,35.210
566.711,35.115
566.984,35.013
567.257,34.930
567.529,34.885
567.802,34.894
568.075,34.899
568.348,34.876
568.621,34.823
568.894,34.762
569.167,34.706
569.440,34.651
569.713,34.570
569.986,34.475
570.259,34.349
570.532,34.253
570.805,34.169
571.078,34.102
571.351,34.033
571.625,33.972
571.898,33.903
572.171,33.818
572.444,33.715
572.717,33.629
572.990,33.560
573.263,33.477
573.536,33.348
573.809,33.200
574.083,33.073
574.356,33.012
574.629,32.990
574.902,32.956
575.175,32.893
575.448,32.791
575.721,32.684
575.995,32.587
576.268,32.497
576.541,32.434
576.814,32.370
577.087,32.322
577.361,32.270
577.634,32.221
577.907,32.144
578.180,32.044
578.453,31.922
578.727,31.824
579.000,31.727
579.273,31.678
579.546,31.645
579.820,31.640
580.093,31.607
580.366,31.563
580.639,31.500
580.913,31.451
581.186,31.399
581.459,31.345
581.732,31.249
582.005,31.139
582.279,31.011
582.552,30.906
582.825,30.795
583.098,30.694
583.372,30.599
583.645,30.530
583.918,30.487
584.191,30.457
584.464,30.426
584.738,30.379
585.011,30.308
585.284,30.217
585.557,30.113
585.831,30.006
586.104,29.920
586.377,29.875
586.650,29.840
586.923,29.808
587.196,29.756
587.470,29.689
587.743,29.627
588.016,29.573
588.289,29.521
588.562,29.462
588.835,29.363
589.109,29.250
589.382,29.120
589.655,29.021
589.928,28.939
590.201,28.874
590.474,28.832
590.747,28.816
591.020,28.785
591.293,28.715
591.567,28.607
591.840,28.483
592.113,28.352
592.386,28.203
592.659,28.053
592.932,27.923
593.205,27.824
593.478,27.747
593.751,27.667
594.024,27.608
594.297,27.549
594.570,27.487
594.843,27.415
595.116,27.335
595.389,27.245
595.662,27.139
595.934,27.032
596.207,26.937
596.480,26.852
596.753,26.775
597.026,26.688
597.299,26.614
597.572,26.527
597.844,26.424
598.117,26.273
598.390,26.115
598.663,25.958
598.936,25.824
599.208,25.694
599.481,25.574
599.754,25.480
600.026,25.393
600.299,25.312
600.572,25.212
600.844,25.099
601.117,24.951
601.390,24.789
601.662,24.639
601.935,24.508
602.207,24.391
602.480,24.274
602.752,24.164
603.025,24.041
603.297,23.927
603.570,23.824
603.842,23.759
604.115,23.675
604.387,23.589
604.660,23.452
604.932,23.322
605.204,23.185
605.477,23.072
605.749,22.966
606.021,22.858
606.294,22.741
606.566,22.613
606.838,22.500
607.110,22.400
607.383,22.322
607.655,22.256
607.927,22.210
608.199,22.161
608.471,22.081
608.743,21.963
609.015,21.823
609.287,21.686
609.559,21.555
609.831,21.447
610.103,21.333
610.375,21.217
610.647,21.073
610.919,20.923
611.191,20.775
611.463,20.626
611.735,20.454
612.007,20.264
612.278,20.081
612.550,19.938
612.822,19.823
613.094,19.712
613.365,19.576
613.637,19.437
613.909,19.290
614.180,19.162
614.452,19.018
614.723,18.884
614.995,18.747
615.266,18.642
615.538,18.553
615.809,18.472
616.081,18.349
616.352,18.197
616.623,18.032
616.895,17.892
617.166,17.747
617.437,17.610
617.709,17.477
617.980,17.382
618.251,17.303
618.522,17.240
618.793,17.188
619.065,17.156
619.336,17.087
619.607,16.990
619.878,16.880
620.149,16.787
620.420,16.666
620.691,16.520
620.962,16.379
621.232,16.278
621.503,16.167
621.774,16.069
622.045,15.974
622.316,15.929
622.586,15.870
622.857,15.818
623.128,15.728
623.398,15.634
623.669,15.520
623.940,15.414
624.210,15.302
624.481,15.215
624.751,15.127
625.021,15.055
625.292,14.960
625.562,14.889
625.833,14.818
626.103,14.760
626.373,14.682
626.643,14.607
626.914,14.520
627.184,14.441
627.454,14.350
627.724,14.265
627.994,14.187
628.264,14.121
628.534,14.031
628.804,13.928
629.074,13.834
629.344,13.762
629.614,13.697
629.884,13.627
630.154,13.567
630.424,13.512
630.693,13.447
630.963,13.369
631.233,13.282
631.502,13.210
631.772,13.144
632.041,13.074
632.311,12.987
632.581,12.894
632.850,12.800
633.119,12.698
633.389,12.603
633.658,12.523
633.928,12.480
634.197,12.453
634.466,12.437
634.735,12.407
635.004,12.338
635.274,12.252
635.543,12.168
635.812,12.107
636.081,12.045
636.350,11.984
636.619,11.915
636.888,11.836
637.157,11.751
637.426,11.681
637.694,11.624
637.963,11.561
638.232,11.504
638.501,11.448
638.769,11.405
639.038,11.359
639.307,11.318
639.575,11.269
639.844,11.193
640.112,11.100
640.381,10.996
640.649,10.914
640.917,10.851
641.186,10.798
641.454,10.752
641.722,10.693
641.991,10.635
642.259,10.558
642.527,10.482
642.795,10.423
643.063,10.358
643.331,10.301
643.599,10.243
643.867,10.221
644.135,10.190
644.403,10.165
644.671,10.107
644.939,10.055
645.206,9.987
645.474,9.928
645.742,9.863
646.009,9.783
646.277,9.709
646.545,9.652
646.812,9.624
647.080,9.606
647.347,9.574
647.615,9.512
647.882,9.416
648.149,9.326
648.417,9.251
648.684,9.198
648.951,9.151
649.219,9.108
649.486,9.065
649.753,9.014
650.020,8.953
650.287,8.883
650.554,8.798
650.821,8.709
651.088,8.625
651.355,8.578
651.622,8.531
651.889,8.491
652.155,8.436
652.422,8.390
652.689,8.353
652.956,8.314
653.222,8.278
653.489,8.253
653.755,8.208
654.022,8.132
654.288,8.025
654.555,7.940
654.821,7.888
655.088,7.848
655.354,7.801
655.620,7.753
655.887,7.703
656.153,7.654
656.419,7.590
656.685,7.515
656.951,7.443
657.217,7.373
657.483,7.316
657.749,7.268
658.015,7.238
658.281,7.197
658.547,7.132
658.813,7.055
659.079,6.981
659.345,6.917
659.610,6.857
659.876,6.797
660.142,6.744
660.407,6.697
660.673,6.659
660.939,6.632
661.204,6.595
661.470,6.549
661.735,6.500
662.000,6.467
662.266,6.428
662.531,6.376
662.796,6.317
663.062,6.255
663.327,6.198
663.592,6.159
663.857,6.130
664.122,6.099
664.388,6.051
664.653,6.004
664.918,5.962
665.183,5.924
665.448,5.897
665.712,5.875
665.977,5.860
666.242,5.835
666.507,5.766
666.772,5.679
667.037,5.593
667.301,5.548
667.566,5.510
667.831,5.484
668.095,5.456
668.360,5.436
668.624,5.388
668.889,5.349
669.153,5.305
669.418,5.287
669.682,5.268
669.946,5.261
670.211,5.254
670.475,5.235
670.739,5.213
671.004,5.195
671.268,5.198
671.532,5.202
671.796,5.134
672.060,5.053
672.324,4.961
672.588,4.930
672.852,4.909
673.116,4.939
673.380,4.982
673.644,4.935
673.908,4.832
674.172,4.717
674.436,4.682
674.700,4.660
674.963,4.632
675.227,4.599
675.491,4.542
675.754,4.494
676.018,4.449
676.282,4.428
676.545,4.396
676.809,4.353
677.072,4.299
677.336,4.250
677.599,4.222
677.863,4.198
678.126,4.184
678.389,4.181
678.653,4.178
678.916,4.160
679.179,4.117
679.442,4.080
679.706,4.060
679.969,4.037
680.232,4.010
680.495,3.989
680.758,3.980
681.021,3.957
681.284,3.911
681.547,3.859
681.810,3.837
682.073,3.843
682.336,3.843
682.599,3.816
682.862,3.780
683.125,3.757
683.388,3.756
683.651,3.748
683.913,3.726
684.176,3.678
684.439,3.620
684.702,3.560
684.964,3.520
685.227,3.506
685.490,3.513
685.752,3.531
686.015,3.524
686.277,3.495
686.540,3.452
686.802,3.403
687.065,3.368
687.327,3.342
687.590,3.333
687.852,3.315
688.115,3.286
688.377,3.259
688.639,3.239
688.902,3.219
689.164,3.204
689.426,3.206
689.689,3.213
689.951,3.199
690.213,3.171
690.475,3.145
690.737,3.120
691.000,3.090
691.262,3.057
691.524,3.041
691.786,3.041
692.048,3.044
692.310,3.032
692.572,2.992
692.834,2.945
693.096,2.919
693.358,2.920
693.620,2.938
693.882,2.946
694.144,2.935
694.406,2.898
694.668,2.864
694.930,2.835
695.192,2.813
695.453,2.796
695.715,2.787
695.977,2.775
696.239,2.752
696.501,2.736
696.762,2.737
697.024,2.743
697.286,2.727
697.548,2.703
697.809,2.678
698.071,2.660
698.333,2.642
698.594,2.622
698.856,2.606
699.118,2.591
699.379,2.579
699.641,2.571
699.902,2.564
700.164,2.550
700.426,2.534
700.687,2.514
700.949,2.505
701.210,2.492
701.472,2.472
701.733,2.446
701.995,2.431
702.256,2.422
702.518,2.418
702.779,2.408
703.041,2.420
703.302,2.439
703.563,2.437
703.825,2.407
704.086,2.369
704.348,2.348
704.609,2.339
704.871,2.346
705.132,2.357
705.393,2.346
705.655,2.330
705.916,2.319
706.177,2.323
706.439,2.323
706.700,2.317
706.961,2.310
707.223,2.302
707.484,2.270
707.745,2.237
708.007,2.202
708.268,2.175
708.529,2.150
708.790,2.117
709.052,2.093
709.313,2.082
709.574,2.082
709.835,2.085
710.097,2.069
710.358,2.034
710.619,1.996
710.881,1.963
711.142,1.946
711.403,1.930
711.664,1.921
711.926,1.901
712.187,1.892
712.448,1.888
712.709,1.902
712.970,1.915
713.232,1.923
713.493,1.922
713.754,1.917
714.015,1.911
714.277,1.915
714.538,1.925
714.799,1.946
715.060,1.957
715.322,1.955
715.583,1.935
715.844,1.906
716.105,1.877
716.367,1.855
716.628,1.850
716.889,1.849
717.150,1.828
717.411,1.794
717.673,1.772
717.934,1.772
718.195,1.777
718.457,1.763
718.718,1.737
718.979,1.724
719.240,1.730
719.502,1.750
719.763,1.761
720.024,1.761
720.286,1.757
720.547,1.740
720.808,1.722
721.069,1.713
721.331,1.721
721.592,1.741
721.853,1.747
722.115,1.744
722.376,1.738
722.638,1.731
722.899,1.728
723.160,1.716
723.422,1.703
723.683,1.687
723.944,1.684
724.206,1.682
724.467,1.676
724.729,1.666
724.990,1.673
725.252,1.685
725.513,1.676
725.775,1.649
726.036,1.631
726.298,1.631
726.559,1.644
726.821,1.645
727.082,1.644
727.344,1.636
727.605,1.633
727.867,1.626
728.128,1.631
728.390,1.635
728.652,1.650
728.913,1.669
729.175,1.682
729.436,1.684
729.698,1.684
729.960,1.676
730.221,1.662
730.483,1.633
730.745,1.620
731.007,1.616
731.268,1.619
731.530,1.622
731.792,1.626
732.054,1.637
732.315,1.649
732.577,1.657
732.839,1.649
733.101,1.632
733.363,1.618
733.625,1.613
733.887,1.616
734.149,1.619
734.411,1.631
734.673,1.642
734.935,1.645
735.197,1.636
735.459,1.640
735.721,1.647
735.983,1.647
