Wavelength (nm),Intensity W5.2,,C:/Users/Brend/Desktop/LED Spectras v2/Spectrometer Data (White).sp,,,W5.2,
379.792,2.848,,2018-06-15 10:31:21,,Integration Time,328 ms,
380.000,2.838,,Analyze Light,,Number of Scans to Average,25,
380.209,2.827,,,,Smoothing,1,
380.418,2.847
380.627,2.882
380.837,2.922
381.048,2.940
381.259,2.938
381.471,2.933
381.683,2.945
381.896,2.975
382.110,2.988
382.324,3.016
382.538,3.052
382.753,3.089
382.969,3.073
383.185,3.047
383.402,3.023
383.619,3.044
383.837,3.077
384.055,3.132
384.274,3.177
384.493,3.203
384.712,3.205
384.932,3.208
385.153,3.221
385.374,3.248
385.596,3.270
385.818,3.305
386.040,3.338
386.263,3.378
386.487,3.395
386.710,3.401
386.935,3.382
387.159,3.374
387.385,3.363
387.610,3.366
387.836,3.373
388.063,3.396
388.289,3.418
388.517,3.435
388.744,3.432
388.972,3.454
389.201,3.472
389.430,3.501
389.659,3.516
389.889,3.540
390.119,3.562
390.349,3.585
390.580,3.609
390.811,3.625
391.042,3.632
391.274,3.642
391.507,3.656
391.739,3.663
391.972,3.656
392.205,3.663
392.439,3.685
392.673,3.718
392.907,3.747
393.142,3.780
393.377,3.799
393.612,3.826
393.848,3.835
394.084,3.854
394.320,3.858
394.557,3.879
394.794,3.892
395.031,3.921
395.269,3.947
395.507,3.982
395.745,3.993
395.983,4.003
396.222,4.013
396.461,4.052
396.700,4.097
396.940,4.134
397.180,4.147
397.420,4.142
397.660,4.129
397.901,4.124
398.142,4.133
398.383,4.143
398.625,4.147
398.866,4.173
399.108,4.222
399.351,4.297
399.593,4.321
399.836,4.326
400.079,4.303
400.322,4.296
400.566,4.287
400.809,4.287
401.053,4.293
401.298,4.312
401.542,4.342
401.787,4.382
402.031,4.411
402.277,4.440
402.522,4.449
402.767,4.468
403.013,4.458
403.259,4.470
403.505,4.474
403.752,4.493
403.998,4.506
404.245,4.550
404.492,4.596
404.739,4.631
404.986,4.642
405.234,4.658
405.482,4.667
405.730,4.666
405.978,4.665
406.226,4.667
406.475,4.660
406.723,4.668
406.972,4.699
407.221,4.751
407.470,4.775
407.720,4.803
407.969,4.805
408.219,4.830
408.469,4.851
408.719,4.888
408.969,4.907
409.219,4.934
409.470,4.953
409.720,4.985
409.971,5.005
410.222,5.044
410.473,5.059
410.724,5.063
410.976,5.063
411.227,5.092
411.479,5.127
411.731,5.162
411.983,5.168
412.235,5.179
412.487,5.171
412.740,5.192
412.992,5.207
413.245,5.237
413.497,5.246
413.750,5.261
414.003,5.258
414.257,5.259
414.510,5.258
414.763,5.290
415.017,5.321
415.270,5.351
415.524,5.356
415.778,5.364
416.032,5.371
416.286,5.410
416.540,5.439
416.794,5.471
417.049,5.475
417.303,5.487
417.558,5.504
417.812,5.525
418.067,5.541
418.322,5.555
418.577,5.562
418.832,5.562
419.088,5.538
419.343,5.536
419.598,5.529
419.854,5.552
420.109,5.570
420.365,5.618
420.621,5.647
420.876,5.682
421.132,5.694
421.388,5.704
421.645,5.700
421.901,5.712
422.157,5.726
422.413,5.748
422.670,5.759
422.926,5.774
423.183,5.770
423.439,5.799
423.696,5.838
423.953,5.922
424.210,5.986
424.467,6.021
424.724,6.016
424.981,6.008
425.238,6.023
425.495,6.080
425.753,6.136
426.010,6.195
426.267,6.233
426.525,6.302
426.782,6.369
427.040,6.445
427.298,6.511
427.555,6.602
427.813,6.682
428.071,6.761
428.329,6.823
428.587,6.892
428.845,6.965
429.103,7.048
429.361,7.133
429.619,7.227
429.878,7.320
430.136,7.439
430.394,7.545
430.653,7.703
430.911,7.876
431.170,8.069
431.428,8.214
431.687,8.339
431.946,8.458
432.204,8.599
432.463,8.762
432.722,8.933
432.981,9.110
433.240,9.318
433.499,9.536
433.758,9.769
434.017,9.967
434.276,10.168
434.535,10.363
434.794,10.586
435.053,10.833
435.312,11.103
435.572,11.369
435.831,11.644
436.090,11.935
436.350,12.256
436.609,12.581
436.869,12.907
437.128,13.223
437.388,13.547
437.647,13.895
437.907,14.282
438.166,14.679
438.426,15.075
438.686,15.477
438.946,15.895
439.205,16.329
439.465,16.787
439.725,17.277
439.985,17.789
440.245,18.288
440.505,18.795
440.765,19.299
441.025,19.817
441.285,20.345
441.545,20.893
441.805,21.460
442.065,22.028
442.325,22.610
442.585,23.236
442.846,23.899
443.106,24.624
443.366,25.354
443.626,26.110
443.887,26.869
444.147,27.665
444.407,28.476
444.668,29.314
444.928,30.174
445.189,31.108
445.449,32.072
445.710,33.070
445.970,34.092
446.231,35.172
446.491,36.309
446.752,37.481
447.012,38.694
447.273,39.964
447.534,41.270
447.794,42.598
448.055,43.958
448.316,45.415
448.577,46.955
448.837,48.569
449.098,50.240
449.359,51.959
449.620,53.682
449.881,55.404
450.142,57.147
450.403,58.968
450.664,60.864
450.924,62.824
451.185,64.813
451.446,66.828
451.707,68.847
451.969,70.882
452.230,72.905
452.491,74.930
452.752,76.905
453.013,78.822
453.274,80.663
453.535,82.397
453.796,83.947
454.058,85.274
454.319,86.382
454.580,87.334
454.841,88.153
455.103,88.880
455.364,89.503
455.625,90.062
455.887,90.547
456.148,90.969
456.409,91.314
456.671,91.587
456.932,91.803
457.194,91.962
457.455,92.076
457.716,92.147
457.978,92.173
458.239,92.149
458.501,92.083
458.763,91.980
459.024,91.837
459.286,91.648
459.547,91.409
459.809,91.114
460.071,90.754
460.332,90.340
460.594,89.873
460.856,89.347
461.117,88.765
461.379,88.121
461.641,87.428
461.903,86.632
462.164,85.718
462.426,84.654
462.688,83.446
462.950,82.102
463.212,80.685
463.474,79.223
463.736,77.749
463.998,76.309
464.260,74.949
464.522,73.683
464.784,72.448
465.046,71.250
465.308,70.116
465.570,69.063
465.832,68.070
466.094,67.124
466.356,66.232
466.618,65.383
466.880,64.541
467.142,63.731
467.405,62.971
467.667,62.309
467.929,61.694
468.191,61.108
468.454,60.519
468.716,59.937
468.978,59.342
469.241,58.738
469.503,58.153
469.765,57.618
470.028,57.119
470.290,56.621
470.552,56.127
470.815,55.642
471.077,55.164
471.340,54.668
471.602,54.167
471.865,53.652
472.128,53.132
472.390,52.617
472.653,52.092
472.915,51.553
473.178,50.981
473.441,50.398
473.703,49.793
473.966,49.183
474.229,48.548
474.492,47.903
474.755,47.197
475.017,46.517
475.280,45.828
475.543,45.181
475.806,44.486
476.069,43.778
476.332,43.053
476.595,42.350
476.858,41.665
477.121,40.978
477.384,40.294
477.647,39.629
477.910,38.991
478.173,38.376
478.436,37.764
478.699,37.186
478.962,36.625
479.226,36.100
479.489,35.557
479.752,35.032
480.015,34.505
480.279,34.005
480.542,33.498
480.805,33.000
481.069,32.512
481.332,32.073
481.595,31.684
481.859,31.350
482.122,31.021
482.386,30.680
482.649,30.323
482.913,29.969
483.177,29.622
483.440,29.297
483.704,29.016
483.967,28.809
484.231,28.632
484.495,28.483
484.759,28.303
485.022,28.098
485.286,27.870
485.550,27.655
485.814,27.432
486.078,27.224
486.342,27.048
486.606,26.930
486.869,26.819
487.133,26.706
487.397,26.585
487.662,26.462
487.926,26.319
488.190,26.171
488.454,26.019
488.718,25.886
488.982,25.742
489.246,25.624
489.511,25.507
489.775,25.411
490.039,25.311
490.304,25.203
490.568,25.084
490.832,24.976
491.097,24.886
491.361,24.820
491.626,24.745
491.890,24.672
492.155,24.600
492.419,24.554
492.684,24.483
492.949,24.406
493.213,24.341
493.478,24.328
493.743,24.320
494.008,24.284
494.272,24.236
494.537,24.222
494.802,24.230
495.067,24.268
495.332,24.304
495.597,24.345
495.862,24.355
496.127,24.377
496.392,24.401
496.657,24.448
496.922,24.495
497.187,24.568
497.452,24.665
497.718,24.794
497.983,24.909
498.248,25.013
498.513,25.094
498.779,25.210
499.044,25.336
499.310,25.443
499.575,25.513
499.841,25.597
500.106,25.699
500.372,25.815
500.637,25.935
500.903,26.094
501.168,26.247
501.434,26.386
501.700,26.496
501.966,26.636
502.231,26.789
502.497,26.951
502.763,27.090
503.029,27.221
503.295,27.358
503.561,27.516
503.827,27.681
504.093,27.849
504.359,28.011
504.625,28.190
504.891,28.356
505.157,28.544
505.423,28.691
505.690,28.824
505.956,28.937
506.222,29.086
506.489,29.273
506.755,29.488
507.021,29.690
507.288,29.880
507.554,30.029
507.821,30.192
508.087,30.354
508.354,30.556
508.621,30.734
508.887,30.898
509.154,31.041
509.421,31.204
509.687,31.355
509.954,31.505
510.221,31.648
510.488,31.832
510.755,32.022
511.022,32.227
511.289,32.389
511.556,32.542
511.823,32.666
512.090,32.823
512.357,32.965
512.624,33.120
512.891,33.247
513.159,33.375
513.426,33.488
513.693,33.628
513.960,33.777
514.228,33.941
514.495,34.089
514.763,34.242
515.030,34.393
515.298,34.545
515.565,34.697
515.833,34.839
516.100,34.948
516.368,35.056
516.636,35.143
516.904,35.263
517.171,35.353
517.439,35.469
517.707,35.575
517.975,35.712
518.243,35.850
518.511,35.987
518.779,36.088
519.047,36.208
519.315,36.319
519.583,36.435
519.851,36.523
520.119,36.616
520.387,36.722
520.656,36.838
520.924,36.962
521.192,37.098
521.461,37.221
521.729,37.332
521.997,37.420
522.266,37.506
522.534,37.584
522.803,37.668
523.071,37.755
523.340,37.856
523.609,37.955
523.877,38.065
524.146,38.169
524.415,38.276
524.684,38.379
524.952,38.475
525.221,38.561
525.490,38.661
525.759,38.755
526.028,38.848
526.297,38.895
526.566,38.956
526.835,39.032
527.104,39.142
527.373,39.232
527.642,39.302
527.912,39.341
528.181,39.398
528.450,39.472
528.719,39.564
528.989,39.663
529.258,39.755
529.528,39.828
529.797,39.861
530.067,39.891
530.336,39.925
530.606,39.961
530.875,39.973
531.145,39.983
531.414,40.018
531.684,40.080
531.954,40.128
532.224,40.153
532.493,40.154
532.763,40.175
533.033,40.224
533.303,40.286
533.573,40.355
533.843,40.385
534.113,40.415
534.383,40.433
534.653,40.490
534.923,40.558
535.193,40.632
535.463,40.683
535.733,40.706
536.004,40.709
536.274,40.718
536.544,40.732
536.814,40.760
537.085,40.795
537.355,40.866
537.626,40.939
537.896,40.997
538.166,41.021
538.437,41.063
538.707,41.104
538.978,41.165
539.249,41.232
539.519,41.310
539.790,41.359
540.061,41.395
540.331,41.431
540.602,41.481
540.873,41.513
541.144,41.527
541.414,41.508
541.685,41.506
541.956,41.504
542.227,41.529
542.498,41.551
542.769,41.612
543.040,41.698
543.311,41.805
543.582,41.898
543.853,41.980
544.124,42.026
544.396,42.061
544.667,42.070
544.938,42.084
545.209,42.043
545.480,42.015
545.752,41.967
546.023,41.958
546.294,41.904
546.566,41.843
546.837,41.767
547.109,41.725
547.380,41.702
547.652,41.695
547.923,41.692
548.195,41.717
548.466,41.750
548.738,41.782
549.009,41.763
549.281,41.726
549.553,41.672
549.824,41.631
550.096,41.616
550.368,41.626
550.640,41.644
550.911,41.656
551.183,41.674
551.455,41.714
551.727,41.723
551.999,41.683
552.271,41.589
552.543,41.519
552.815,41.460
553.087,41.444
553.359,41.426
553.631,41.412
553.903,41.372
554.175,41.333
554.447,41.303
554.719,41.279
554.991,41.229
555.263,41.175
555.535,41.117
555.808,41.074
556.080,41.035
556.352,41.004
556.624,40.970
556.897,40.929
557.169,40.878
557.441,40.831
557.714,40.769
557.986,40.716
558.258,40.645
558.531,40.611
558.803,40.582
559.076,40.575
559.348,40.538
559.621,40.485
559.893,40.429
560.166,40.377
560.438,40.324
560.711,40.276
560.983,40.251
561.256,40.254
561.528,40.249
561.801,40.224
562.074,40.170
562.346,40.111
562.619,40.043
562.892,39.985
563.164,39.921
563.437,39.884
563.710,39.829
563.983,39.775
564.255,39.707
564.528,39.690
564.801,39.698
565.074,39.714
565.346,39.673
565.619,39.618
565.892,39.558
566.165,39.488
566.438,39.375
566.711,39.251
566.984,39.154
567.257,39.089
567.529,39.039
567.802,39.017
568.075,38.998
568.348,38.969
568.621,38.916
568.894,38.860
569.167,38.798
569.440,38.732
569.713,38.634
569.986,38.538
570.259,38.422
570.532,38.325
570.805,38.234
571.078,38.149
571.351,38.066
571.625,37.990
571.898,37.898
572.171,37.797
572.444,37.692
572.717,37.604
572.990,37.518
573.263,37.393
573.536,37.245
573.809,37.086
574.083,36.959
574.356,36.869
574.629,36.825
574.902,36.782
575.175,36.723
575.448,36.635
575.721,36.532
575.995,36.447
576.268,36.356
576.541,36.299
576.814,36.239
577.087,36.193
577.361,36.131
577.634,36.059
577.907,35.960
578.180,35.839
578.453,35.725
578.727,35.654
579.000,35.602
579.273,35.563
579.546,35.522
579.820,35.493
580.093,35.438
580.366,35.358
580.639,35.246
580.913,35.150
581.186,35.057
581.459,34.983
581.732,34.884
582.005,34.798
582.279,34.686
582.552,34.577
582.825,34.433
583.098,34.301
583.372,34.189
583.645,34.124
583.918,34.090
584.191,34.063
584.464,34.024
584.738,33.979
585.011,33.905
585.284,33.796
585.557,33.645
585.831,33.509
586.104,33.401
586.377,33.333
586.650,33.258
586.923,33.191
587.196,33.130
587.470,33.077
587.743,33.030
588.016,32.977
588.289,32.919
588.562,32.852
588.835,32.737
589.109,32.600
589.382,32.446
589.655,32.326
589.928,32.228
590.201,32.148
590.474,32.101
590.747,32.076
591.020,32.055
591.293,32.009
591.567,31.930
591.840,31.814
592.113,31.658
592.386,31.474
592.659,31.279
592.932,31.133
593.205,31.026
593.478,30.955
593.751,30.868
594.024,30.809
594.297,30.745
594.570,30.697
594.843,30.635
595.116,30.563
595.389,30.461
595.662,30.325
595.934,30.192
596.207,30.070
596.480,29.959
596.753,29.860
597.026,29.753
597.299,29.671
597.572,29.586
597.844,29.509
598.117,29.381
598.390,29.234
598.663,29.058
598.936,28.893
599.208,28.725
599.481,28.581
599.754,28.456
600.026,28.324
600.299,28.196
600.572,28.067
600.844,27.946
601.117,27.811
601.390,27.669
601.662,27.546
601.935,27.408
602.207,27.275
602.480,27.129
602.752,26.991
603.025,26.832
603.297,26.677
603.570,26.551
603.842,26.480
604.115,26.404
604.387,26.325
604.660,26.196
604.932,26.069
605.204,25.933
605.477,25.810
605.749,25.691
606.021,25.571
606.294,25.442
606.566,25.294
606.838,25.160
607.110,25.047
607.383,24.970
607.655,24.905
607.927,24.848
608.199,24.797
608.471,24.724
608.743,24.618
609.015,24.471
609.287,24.324
609.559,24.176
609.831,24.045
610.103,23.901
610.375,23.761
610.647,23.594
610.919,23.419
611.191,23.245
611.463,23.094
611.735,22.938
612.007,22.767
612.278,22.589
612.550,22.426
612.822,22.277
613.094,22.133
613.365,21.970
613.637,21.831
613.909,21.680
614.180,21.544
614.452,21.373
614.723,21.207
614.995,21.040
615.266,20.903
615.538,20.791
615.809,20.699
616.081,20.584
616.352,20.446
616.623,20.291
616.895,20.148
617.166,19.991
617.437,19.837
617.709,19.685
617.980,19.573
618.251,19.476
618.522,19.398
618.793,19.331
619.065,19.287
619.336,19.201
619.607,19.082
619.878,18.945
620.149,18.838
620.420,18.712
620.691,18.566
620.962,18.421
621.232,18.309
621.503,18.190
621.774,18.078
622.045,17.969
622.316,17.913
622.586,17.863
622.857,17.825
623.128,17.737
623.398,17.634
623.669,17.502
623.940,17.376
624.210,17.235
624.481,17.134
624.751,17.038
625.021,16.952
625.292,16.837
625.562,16.749
625.833,16.664
626.103,16.579
626.373,16.475
626.643,16.389
626.914,16.304
627.184,16.234
627.454,16.158
627.724,16.082
627.994,15.992
628.264,15.894
628.534,15.783
628.804,15.668
629.074,15.574
629.344,15.499
629.614,15.433
629.884,15.359
630.154,15.286
630.424,15.217
630.693,15.133
630.963,15.035
631.233,14.923
631.502,14.831
631.772,14.757
632.041,14.683
632.311,14.596
632.581,14.500
632.850,14.410
633.119,14.301
633.389,14.194
633.658,14.107
633.928,14.068
634.197,14.048
634.466,14.021
634.735,13.977
635.004,13.902
635.274,13.817
635.543,13.721
635.812,13.638
636.081,13.561
636.350,13.489
636.619,13.415
636.888,13.330
637.157,13.245
637.426,13.184
637.694,13.127
637.963,13.074
638.232,13.016
638.501,12.953
638.769,12.890
639.038,12.823
639.307,12.768
639.575,12.713
639.844,12.622
640.112,12.516
640.381,12.397
640.649,12.313
640.917,12.247
641.186,12.185
641.454,12.127
641.722,12.058
641.991,12.001
642.259,11.920
642.527,11.841
642.795,11.771
643.063,11.700
643.331,11.646
643.599,11.591
643.867,11.575
644.135,11.546
644.403,11.517
644.671,11.453
644.939,11.397
645.206,11.325
645.474,11.266
645.742,11.192
646.009,11.115
646.277,11.046
646.545,10.984
646.812,10.943
647.080,10.898
647.347,10.843
647.615,10.760
647.882,10.653
648.149,10.547
648.417,10.453
648.684,10.388
648.951,10.342
649.219,10.307
649.486,10.267
649.753,10.220
650.020,10.157
650.287,10.081
650.554,9.993
650.821,9.905
651.088,9.816
651.355,9.756
651.622,9.690
651.889,9.643
652.155,9.576
652.422,9.531
652.689,9.498
652.956,9.456
653.222,9.410
653.489,9.372
653.755,9.318
654.022,9.230
654.288,9.105
654.555,9.005
654.821,8.939
655.088,8.890
655.354,8.839
655.620,8.796
655.887,8.744
656.153,8.693
656.419,8.632
656.685,8.573
656.951,8.515
657.217,8.453
657.483,8.388
657.749,8.330
658.015,8.288
658.281,8.246
658.547,8.182
658.813,8.108
659.079,8.034
659.345,7.964
659.610,7.890
659.876,7.817
660.142,7.755
660.407,7.703
660.673,7.655
660.939,7.614
661.204,7.561
661.470,7.502
661.735,7.446
662.000,7.412
662.266,7.374
662.531,7.322
662.796,7.263
663.062,7.206
663.327,7.143
663.592,7.092
663.857,7.048
664.122,7.013
664.388,6.965
664.653,6.920
664.918,6.883
665.183,6.839
665.448,6.799
665.712,6.760
665.977,6.735
666.242,6.700
666.507,6.619
666.772,6.537
667.037,6.459
667.301,6.423
667.566,6.378
667.831,6.341
668.095,6.296
668.360,6.264
668.624,6.199
668.889,6.156
669.153,6.108
669.418,6.083
669.682,6.054
669.946,6.034
670.211,6.030
670.475,6.013
670.739,5.986
671.004,5.959
671.268,5.956
671.532,5.975
671.796,5.913
672.060,5.829
672.324,5.723
672.588,5.689
672.852,5.674
673.116,5.709
673.380,5.752
673.644,5.686
673.908,5.563
674.172,5.428
674.436,5.395
674.700,5.374
674.963,5.357
675.227,5.327
675.491,5.266
675.754,5.202
676.018,5.142
676.282,5.111
676.545,5.073
676.809,5.026
677.072,4.968
677.336,4.916
677.599,4.883
677.863,4.855
678.126,4.843
678.389,4.842
678.653,4.840
678.916,4.817
679.179,4.753
679.442,4.695
679.706,4.660
679.969,4.633
680.232,4.607
680.495,4.583
680.758,4.572
681.021,4.541
681.284,4.490
681.547,4.435
681.810,4.411
682.073,4.416
682.336,4.421
682.599,4.401
682.862,4.364
683.125,4.340
683.388,4.327
683.651,4.310
683.913,4.287
684.176,4.238
684.439,4.180
684.702,4.113
684.964,4.070
685.227,4.046
685.490,4.041
685.752,4.049
686.015,4.035
686.277,4.002
686.540,3.949
686.802,3.894
687.065,3.858
687.327,3.844
687.590,3.839
687.852,3.820
688.115,3.782
688.377,3.749
688.639,3.724
688.902,3.708
689.164,3.697
689.426,3.699
689.689,3.702
689.951,3.681
690.213,3.647
690.475,3.612
690.737,3.581
691.000,3.549
691.262,3.521
691.524,3.509
691.786,3.511
692.048,3.515
692.310,3.498
692.572,3.449
692.834,3.393
693.096,3.362
693.358,3.363
693.620,3.379
693.882,3.389
694.144,3.379
694.406,3.346
694.668,3.310
694.930,3.272
695.192,3.240
695.453,3.219
695.715,3.206
695.977,3.186
696.239,3.143
696.501,3.110
696.762,3.104
697.024,3.109
697.286,3.087
697.548,3.052
697.809,3.020
698.071,2.998
698.333,2.979
698.594,2.960
698.856,2.959
699.118,2.956
699.379,2.951
699.641,2.943
699.902,2.937
700.164,2.918
700.426,2.889
700.687,2.855
700.949,2.838
701.210,2.824
701.472,2.805
701.733,2.769
701.995,2.747
702.256,2.729
702.518,2.722
702.779,2.700
703.041,2.707
703.302,2.726
703.563,2.727
703.825,2.696
704.086,2.658
704.348,2.641
704.609,2.637
704.871,2.647
705.132,2.663
705.393,2.648
705.655,2.620
705.916,2.599
706.177,2.600
706.439,2.597
706.700,2.581
706.961,2.561
707.223,2.545
707.484,2.506
707.745,2.466
708.007,2.424
708.268,2.392
708.529,2.359
708.790,2.308
709.052,2.269
709.313,2.253
709.574,2.253
709.835,2.248
710.097,2.227
710.358,2.187
710.619,2.146
710.881,2.104
711.142,2.080
711.403,2.057
711.664,2.046
711.926,2.023
712.187,2.020
712.448,2.021
712.709,2.035
712.970,2.044
713.232,2.045
713.493,2.044
713.754,2.035
714.015,2.029
714.277,2.031
714.538,2.040
714.799,2.060
715.060,2.064
715.322,2.059
715.583,2.035
715.844,2.009
716.105,1.978
716.367,1.957
716.628,1.949
716.889,1.944
717.150,1.924
717.411,1.892
717.673,1.871
717.934,1.864
718.195,1.863
718.457,1.844
718.718,1.814
718.979,1.794
719.240,1.797
719.502,1.816
719.763,1.832
720.024,1.839
720.286,1.839
720.547,1.819
720.808,1.799
721.069,1.787
721.331,1.791
721.592,1.807
721.853,1.814
722.115,1.818
722.376,1.819
722.638,1.815
722.899,1.808
723.160,1.785
723.422,1.762
723.683,1.743
723.944,1.743
724.206,1.743
724.467,1.739
724.729,1.730
724.990,1.741
725.252,1.756
725.513,1.746
725.775,1.712
726.036,1.681
726.298,1.674
726.559,1.688
726.821,1.694
727.082,1.696
727.344,1.688
727.605,1.690
727.867,1.682
728.128,1.685
728.390,1.684
728.652,1.701
728.913,1.726
729.175,1.744
729.436,1.744
729.698,1.741
729.960,1.732
730.221,1.722
730.483,1.691
730.745,1.678
731.007,1.672
731.268,1.673
731.530,1.674
731.792,1.679
732.054,1.692
732.315,1.703
732.577,1.708
732.839,1.694
733.101,1.672
733.363,1.657
733.625,1.657
733.887,1.663
734.149,1.662
734.411,1.668
734.673,1.674
734.935,1.679
735.197,1.673
735.459,1.681
