Wavelength (nm),Intensity W12.1,,C:/Users/Brend/Desktop/LED Spectras v2/Spectrometer Data (White).sp,,,W12.1,
379.792,2.411,,2018-06-15 11:15:39,,Integration Time,244 ms,
380.000,2.401,,Analyze Light,,Number of Scans to Average,25,
380.209,2.393,,,,Smoothing,1,
380.418,2.412
380.627,2.440
380.837,2.466
381.048,2.477
381.259,2.477
381.471,2.476
381.683,2.482
381.896,2.500
382.110,2.510
382.324,2.530
382.538,2.556
382.753,2.587
382.969,2.585
383.185,2.569
383.402,2.550
383.619,2.557
383.837,2.571
384.055,2.602
384.274,2.632
384.493,2.658
384.712,2.664
384.932,2.670
385.153,2.677
385.374,2.694
385.596,2.710
385.818,2.742
386.040,2.774
386.263,2.806
386.487,2.813
386.710,2.808
386.935,2.786
387.159,2.777
387.385,2.770
387.610,2.774
387.836,2.780
388.063,2.794
388.289,2.804
388.517,2.814
388.744,2.818
388.972,2.845
389.201,2.868
389.430,2.889
389.659,2.898
389.889,2.914
390.119,2.931
390.349,2.945
390.580,2.960
390.811,2.970
391.042,2.974
391.274,2.981
391.507,2.993
391.739,3.001
391.972,2.994
392.205,2.996
392.439,3.018
392.673,3.047
392.907,3.067
393.142,3.092
393.377,3.110
393.612,3.138
393.848,3.144
394.084,3.156
394.320,3.158
394.557,3.175
394.794,3.184
395.031,3.203
395.269,3.221
395.507,3.248
395.745,3.263
395.983,3.277
396.222,3.287
396.461,3.314
396.700,3.346
396.940,3.374
397.180,3.386
397.420,3.383
397.660,3.376
397.901,3.373
398.142,3.380
398.383,3.382
398.625,3.377
398.866,3.389
399.108,3.425
399.351,3.484
399.593,3.506
399.836,3.508
400.079,3.485
400.322,3.477
400.566,3.467
400.809,3.466
401.053,3.470
401.298,3.487
401.542,3.513
401.787,3.542
402.031,3.560
402.277,3.576
402.522,3.583
402.767,3.601
403.013,3.600
403.259,3.611
403.505,3.611
403.752,3.625
403.998,3.630
404.245,3.659
404.492,3.689
404.739,3.714
404.986,3.722
405.234,3.736
405.482,3.745
405.730,3.750
405.978,3.752
406.226,3.755
406.475,3.749
406.723,3.747
406.972,3.762
407.221,3.793
407.470,3.810
407.720,3.826
407.969,3.826
408.219,3.844
408.469,3.859
408.719,3.882
408.969,3.891
409.219,3.909
409.470,3.926
409.720,3.955
409.971,3.976
410.222,4.005
410.473,4.015
410.724,4.020
410.976,4.022
411.227,4.041
411.479,4.058
411.731,4.077
411.983,4.082
412.235,4.094
412.487,4.098
412.740,4.113
412.992,4.121
413.245,4.135
413.497,4.135
413.750,4.137
414.003,4.128
414.257,4.127
414.510,4.125
414.763,4.147
415.017,4.166
415.270,4.189
415.524,4.198
415.778,4.210
416.032,4.221
416.286,4.250
416.540,4.273
416.794,4.301
417.049,4.307
417.303,4.316
417.558,4.325
417.812,4.339
418.067,4.351
418.322,4.363
418.577,4.364
418.832,4.363
419.088,4.344
419.343,4.348
419.598,4.344
419.854,4.364
420.109,4.375
420.365,4.415
420.621,4.436
420.876,4.464
421.132,4.474
421.388,4.483
421.645,4.478
421.901,4.480
422.157,4.489
422.413,4.514
422.670,4.533
422.926,4.555
423.183,4.556
423.439,4.585
423.696,4.616
423.953,4.689
424.210,4.748
424.467,4.792
424.724,4.804
424.981,4.812
425.238,4.836
425.495,4.885
425.753,4.933
426.010,4.983
426.267,5.020
426.525,5.081
426.782,5.142
427.040,5.214
427.298,5.283
427.555,5.370
427.813,5.440
428.071,5.515
428.329,5.579
428.587,5.656
428.845,5.734
429.103,5.824
429.361,5.916
429.619,6.015
429.878,6.119
430.136,6.241
430.394,6.351
430.653,6.488
430.911,6.635
431.170,6.802
431.428,6.940
431.687,7.074
431.946,7.208
432.204,7.366
432.463,7.533
432.722,7.713
432.981,7.889
433.240,8.084
433.499,8.281
433.758,8.503
434.017,8.706
434.276,8.921
434.535,9.128
434.794,9.361
435.053,9.604
435.312,9.874
435.572,10.141
435.831,10.427
436.090,10.732
436.350,11.053
436.609,11.375
436.869,11.692
437.128,12.022
437.388,12.370
437.647,12.736
437.907,13.125
438.166,13.509
438.426,13.901
438.686,14.294
438.946,14.713
439.205,15.152
439.465,15.630
439.725,16.131
439.985,16.643
440.245,17.137
440.505,17.645
440.765,18.158
441.025,18.691
441.285,19.232
441.545,19.788
441.805,20.355
442.065,20.927
442.325,21.523
442.585,22.161
442.846,22.845
443.106,23.568
443.366,24.324
443.626,25.091
443.887,25.878
444.147,26.678
444.407,27.518
444.668,28.387
444.928,29.290
445.189,30.240
445.449,31.229
445.710,32.268
445.970,33.354
446.231,34.495
446.491,35.697
446.752,36.949
447.012,38.261
447.273,39.635
447.534,41.057
447.794,42.515
448.055,44.021
448.316,45.625
448.577,47.325
448.837,49.114
449.098,50.950
449.359,52.835
449.620,54.730
449.881,56.662
450.142,58.651
450.403,60.729
450.664,62.866
450.924,65.049
451.185,67.263
451.446,69.486
451.707,71.698
451.969,73.905
452.230,76.109
452.491,78.282
452.752,80.341
453.013,82.251
453.274,83.949
453.535,85.407
453.796,86.610
454.058,87.602
454.319,88.463
454.580,89.221
454.841,89.886
455.103,90.446
455.364,90.903
455.625,91.285
455.887,91.586
456.148,91.821
456.409,91.983
456.671,92.089
456.932,92.135
457.194,92.123
457.455,92.055
457.716,91.940
457.978,91.781
458.239,91.574
458.501,91.317
458.763,90.995
459.024,90.600
459.286,90.133
459.547,89.597
459.809,88.992
460.071,88.316
460.332,87.571
460.594,86.726
460.856,85.761
461.117,84.622
461.379,83.318
461.641,81.871
461.903,80.346
462.164,78.798
462.426,77.250
462.688,75.716
462.950,74.204
463.212,72.737
463.474,71.316
463.736,69.947
463.998,68.669
464.260,67.485
464.522,66.374
464.784,65.304
465.046,64.279
465.308,63.343
465.570,62.467
465.832,61.667
466.094,60.914
466.356,60.209
466.618,59.518
466.880,58.830
467.142,58.149
467.405,57.513
467.667,56.928
467.929,56.371
468.191,55.835
468.454,55.295
468.716,54.759
468.978,54.181
469.241,53.562
469.503,52.944
469.765,52.372
470.028,51.837
470.290,51.311
470.552,50.768
470.815,50.226
471.077,49.662
471.340,49.077
471.602,48.463
471.865,47.831
472.128,47.179
472.390,46.533
472.653,45.883
472.915,45.240
473.178,44.579
473.441,43.905
473.703,43.200
473.966,42.490
474.229,41.772
474.492,41.053
474.755,40.322
475.017,39.625
475.280,38.956
475.543,38.313
475.806,37.626
476.069,36.928
476.332,36.206
476.595,35.532
476.858,34.876
477.121,34.246
477.384,33.626
477.647,33.026
477.910,32.458
478.173,31.908
478.436,31.361
478.699,30.851
478.962,30.365
479.226,29.921
479.489,29.472
479.752,29.051
480.015,28.642
480.279,28.245
480.542,27.836
480.805,27.445
481.069,27.072
481.332,26.723
481.595,26.401
481.859,26.137
482.122,25.901
482.386,25.664
482.649,25.414
482.913,25.158
483.177,24.898
483.440,24.639
483.704,24.405
483.967,24.223
484.231,24.069
484.495,23.932
484.759,23.784
485.022,23.618
485.286,23.436
485.550,23.256
485.814,23.055
486.078,22.873
486.342,22.708
486.606,22.593
486.869,22.483
487.133,22.375
487.397,22.269
487.662,22.167
487.926,22.052
488.190,21.931
488.454,21.797
488.718,21.675
488.982,21.538
489.246,21.425
489.511,21.313
489.775,21.213
490.039,21.108
490.304,21.004
490.568,20.899
490.832,20.811
491.097,20.737
491.361,20.686
491.626,20.636
491.890,20.591
492.155,20.545
492.419,20.511
492.684,20.458
492.949,20.409
493.213,20.373
493.478,20.380
493.743,20.374
494.008,20.346
494.272,20.310
494.537,20.316
494.802,20.340
495.067,20.387
495.332,20.429
495.597,20.489
495.862,20.531
496.127,20.584
496.392,20.623
496.657,20.665
496.922,20.703
497.187,20.777
497.452,20.877
497.718,21.018
497.983,21.143
498.248,21.268
498.513,21.370
498.779,21.493
499.044,21.605
499.310,21.705
499.575,21.788
499.841,21.887
500.106,21.993
500.372,22.104
500.637,22.228
500.903,22.391
501.168,22.544
501.434,22.676
501.700,22.773
501.966,22.900
502.231,23.040
502.497,23.194
502.763,23.333
503.029,23.474
503.295,23.614
503.561,23.752
503.827,23.887
504.093,24.031
504.359,24.171
504.625,24.322
504.891,24.465
505.157,24.631
505.423,24.774
505.690,24.915
505.956,25.050
506.222,25.221
506.489,25.410
506.755,25.602
507.021,25.760
507.288,25.916
507.554,26.044
507.821,26.193
508.087,26.334
508.354,26.522
508.621,26.684
508.887,26.836
509.154,26.959
509.421,27.093
509.687,27.210
509.954,27.331
510.221,27.449
510.488,27.611
510.755,27.787
511.022,27.976
511.289,28.121
511.556,28.253
511.823,28.368
512.090,28.516
512.357,28.646
512.624,28.783
512.891,28.902
513.159,29.026
513.426,29.150
513.693,29.286
513.960,29.420
514.228,29.557
514.495,29.683
514.763,29.813
515.030,29.937
515.298,30.061
515.565,30.193
515.833,30.328
516.100,30.454
516.368,30.565
516.636,30.660
516.904,30.767
517.171,30.867
517.439,30.979
517.707,31.081
517.975,31.199
518.243,31.318
518.511,31.431
518.779,31.519
519.047,31.621
519.315,31.717
519.583,31.806
519.851,31.879
520.119,31.973
520.387,32.082
520.656,32.190
520.924,32.294
521.192,32.397
521.461,32.482
521.729,32.551
521.997,32.612
522.266,32.689
522.534,32.761
522.803,32.849
523.071,32.936
523.340,33.030
523.609,33.116
523.877,33.214
524.146,33.312
524.415,33.407
524.684,33.491
524.952,33.573
525.221,33.650
525.490,33.733
525.759,33.804
526.028,33.879
526.297,33.919
526.566,33.974
526.835,34.027
527.104,34.111
527.373,34.191
527.642,34.267
527.912,34.312
528.181,34.359
528.450,34.422
528.719,34.497
528.989,34.564
529.258,34.617
529.528,34.649
529.797,34.676
530.067,34.711
530.336,34.756
530.606,34.793
530.875,34.801
531.145,34.815
531.414,34.840
531.684,34.894
531.954,34.933
532.224,34.957
532.493,34.958
532.763,34.968
533.033,34.998
533.303,35.045
533.573,35.095
533.843,35.108
534.113,35.120
534.383,35.127
534.653,35.171
534.923,35.209
535.193,35.252
535.463,35.289
535.733,35.331
536.004,35.364
536.274,35.394
536.544,35.411
536.814,35.436
537.085,35.463
537.355,35.526
537.626,35.595
537.896,35.654
538.166,35.672
538.437,35.680
538.707,35.689
538.978,35.732
539.249,35.807
539.519,35.903
539.790,35.974
540.061,36.022
540.331,36.064
540.602,36.116
540.873,36.140
541.144,36.142
541.414,36.121
541.685,36.133
541.956,36.151
542.227,36.178
542.498,36.197
542.769,36.225
543.040,36.267
543.311,36.323
543.582,36.396
543.853,36.476
544.124,36.540
544.396,36.594
544.667,36.637
544.938,36.670
545.209,36.634
545.480,36.587
545.752,36.529
546.023,36.518
546.294,36.478
546.566,36.438
546.837,36.387
547.109,36.355
547.380,36.329
547.652,36.321
547.923,36.327
548.195,36.356
548.466,36.387
548.738,36.411
549.009,36.382
549.281,36.328
549.553,36.256
549.824,36.195
550.096,36.156
550.368,36.152
550.640,36.175
550.911,36.205
551.183,36.237
551.455,36.273
551.727,36.277
551.999,36.242
552.271,36.172
552.543,36.120
552.815,36.081
553.087,36.082
553.359,36.093
553.631,36.100
553.903,36.075
554.175,36.038
554.447,36.000
554.719,35.955
554.991,35.884
555.263,35.815
555.535,35.758
555.808,35.737
556.080,35.718
556.352,35.705
556.624,35.671
556.897,35.629
557.169,35.571
557.441,35.511
557.714,35.445
557.986,35.402
558.258,35.364
558.531,35.362
558.803,35.357
559.076,35.360
559.348,35.328
559.621,35.283
559.893,35.226
560.166,35.173
560.438,35.111
560.711,35.064
560.983,35.040
561.256,35.047
561.528,35.045
561.801,35.036
562.074,35.015
562.346,34.995
562.619,34.949
562.892,34.880
563.164,34.801
563.437,34.749
563.710,34.704
563.983,34.660
564.255,34.615
564.528,34.604
564.801,34.619
565.074,34.629
565.346,34.593
565.619,34.546
565.892,34.499
566.165,34.448
566.438,34.350
566.711,34.241
566.984,34.149
567.257,34.091
567.529,34.054
567.802,34.047
568.075,34.035
568.348,34.007
568.621,33.956
568.894,33.900
569.167,33.843
569.440,33.779
569.713,33.681
569.986,33.573
570.259,33.443
570.532,33.353
570.805,33.271
571.078,33.212
571.351,33.146
571.625,33.097
571.898,33.037
572.171,32.964
572.444,32.873
572.717,32.791
572.990,32.711
573.263,32.617
573.536,32.492
573.809,32.358
574.083,32.242
574.356,32.171
574.629,32.141
574.902,32.117
575.175,32.073
575.448,31.992
575.721,31.883
575.995,31.779
576.268,31.679
576.541,31.614
576.814,31.549
577.087,31.494
577.361,31.426
577.634,31.368
577.907,31.291
578.180,31.211
578.453,31.120
578.727,31.051
579.000,30.970
579.273,30.908
579.546,30.862
579.820,30.834
580.093,30.779
580.366,30.701
580.639,30.616
580.913,30.556
581.186,30.500
581.459,30.449
581.732,30.364
582.005,30.276
582.279,30.158
582.552,30.052
582.825,29.933
583.098,29.847
583.372,29.771
583.645,29.724
583.918,29.686
584.191,29.662
584.464,29.631
584.738,29.591
585.011,29.531
585.284,29.450
585.557,29.349
585.831,29.250
586.104,29.151
586.377,29.075
586.650,29.007
586.923,28.953
587.196,28.897
587.470,28.840
587.743,28.798
588.016,28.763
588.289,28.728
588.562,28.669
588.835,28.573
589.109,28.442
589.382,28.308
589.655,28.199
589.928,28.120
590.201,28.058
590.474,28.020
590.747,27.992
591.020,27.949
591.293,27.877
591.567,27.777
591.840,27.671
592.113,27.562
592.386,27.445
592.659,27.312
592.932,27.189
593.205,27.088
593.478,27.015
593.751,26.951
594.024,26.897
594.297,26.833
594.570,26.761
594.843,26.697
595.116,26.632
595.389,26.548
595.662,26.438
595.934,26.325
596.207,26.225
596.480,26.112
596.753,26.010
597.026,25.906
597.299,25.833
597.572,25.764
597.844,25.691
598.117,25.579
598.390,25.444
598.663,25.290
598.936,25.152
599.208,25.016
599.481,24.895
599.754,24.773
600.026,24.654
600.299,24.544
600.572,24.455
600.844,24.364
601.117,24.269
601.390,24.154
601.662,24.049
601.935,23.928
602.207,23.806
602.480,23.674
602.752,23.540
603.025,23.393
603.297,23.263
603.570,23.163
603.842,23.100
604.115,23.031
604.387,22.960
604.660,22.846
604.932,22.717
605.204,22.577
605.477,22.450
605.749,22.340
606.021,22.230
606.294,22.115
606.566,21.984
606.838,21.866
607.110,21.771
607.383,21.703
607.655,21.648
607.927,21.601
608.199,21.552
608.471,21.473
608.743,21.358
609.015,21.215
609.287,21.074
609.559,20.931
609.831,20.806
610.103,20.677
610.375,20.551
610.647,20.404
610.919,20.254
611.191,20.113
611.463,19.985
611.735,19.847
612.007,19.689
612.278,19.525
612.550,19.391
612.822,19.276
613.094,19.169
613.365,19.039
613.637,18.915
613.909,18.778
614.180,18.653
614.452,18.513
614.723,18.373
614.995,18.232
615.266,18.120
615.538,18.028
615.809,17.950
616.081,17.838
616.352,17.719
616.623,17.582
616.895,17.457
617.166,17.315
617.437,17.175
617.709,17.039
617.980,16.929
618.251,16.833
618.522,16.756
618.793,16.695
619.065,16.658
619.336,16.585
619.607,16.489
619.878,16.374
620.149,16.286
620.420,16.182
620.691,16.068
620.962,15.946
621.232,15.848
621.503,15.726
621.774,15.616
622.045,15.510
622.316,15.459
622.586,15.413
622.857,15.379
623.128,15.302
623.398,15.216
623.669,15.102
623.940,14.999
624.210,14.893
624.481,14.816
624.751,14.734
625.021,14.653
625.292,14.558
625.562,14.483
625.833,14.408
626.103,14.342
626.373,14.268
626.643,14.210
626.914,14.130
627.184,14.052
627.454,13.963
627.724,13.882
627.994,13.793
628.264,13.701
628.534,13.603
628.804,13.514
629.074,13.438
629.344,13.375
629.614,13.314
629.884,13.255
630.154,13.199
630.424,13.144
630.693,13.078
630.963,12.995
631.233,12.906
631.502,12.829
631.772,12.768
632.041,12.702
632.311,12.611
632.581,12.509
632.850,12.411
633.119,12.312
633.389,12.217
633.658,12.140
633.928,12.105
634.197,12.091
634.466,12.074
634.735,12.037
635.004,11.973
635.274,11.901
635.543,11.827
635.812,11.761
636.081,11.695
636.350,11.636
636.619,11.578
636.888,11.509
637.157,11.429
637.426,11.361
637.694,11.304
637.963,11.249
638.232,11.191
638.501,11.127
638.769,11.079
639.038,11.027
639.307,10.987
639.575,10.928
639.844,10.845
640.112,10.753
640.381,10.667
640.649,10.604
640.917,10.553
641.186,10.497
641.454,10.442
641.722,10.376
641.991,10.320
642.259,10.250
642.527,10.185
642.795,10.123
643.063,10.058
643.331,10.002
643.599,9.945
643.867,9.925
644.135,9.897
644.403,9.880
644.671,9.832
644.939,9.786
645.206,9.728
645.474,9.686
645.742,9.634
646.009,9.563
646.277,9.493
646.545,9.434
646.812,9.397
647.080,9.358
647.347,9.304
647.615,9.236
647.882,9.148
648.149,9.066
648.417,8.986
648.684,8.926
648.951,8.881
649.219,8.847
649.486,8.812
649.753,8.768
650.020,8.704
650.287,8.630
650.554,8.548
650.821,8.475
651.088,8.401
651.355,8.353
651.622,8.296
651.889,8.254
652.155,8.197
652.422,8.155
652.689,8.112
652.956,8.068
653.222,8.028
653.489,8.008
653.755,7.972
654.022,7.905
654.288,7.797
654.555,7.712
654.821,7.656
655.088,7.615
655.354,7.571
655.620,7.532
655.887,7.488
656.153,7.440
656.419,7.376
656.685,7.317
656.951,7.260
657.217,7.204
657.483,7.153
657.749,7.105
658.015,7.063
658.281,7.014
658.547,6.946
658.813,6.874
659.079,6.798
659.345,6.727
659.610,6.666
659.876,6.617
660.142,6.574
660.407,6.533
660.673,6.494
660.939,6.465
661.204,6.425
661.470,6.378
661.735,6.329
662.000,6.294
662.266,6.254
662.531,6.206
662.796,6.149
663.062,6.099
663.327,6.045
663.592,6.000
663.857,5.954
664.122,5.917
664.388,5.873
664.653,5.839
664.918,5.811
665.183,5.782
665.448,5.752
665.712,5.720
665.977,5.690
666.242,5.654
666.507,5.585
666.772,5.519
667.037,5.453
667.301,5.421
667.566,5.384
667.831,5.354
668.095,5.322
668.360,5.297
668.624,5.249
668.889,5.216
669.153,5.175
669.418,5.149
669.682,5.113
669.946,5.086
670.211,5.072
670.475,5.054
670.739,5.037
671.004,5.022
671.268,5.023
671.532,5.032
671.796,4.971
672.060,4.897
672.324,4.813
672.588,4.789
672.852,4.772
673.116,4.795
673.380,4.821
673.644,4.763
673.908,4.660
674.172,4.550
674.436,4.522
674.700,4.507
674.963,4.492
675.227,4.470
675.491,4.420
675.754,4.372
676.018,4.322
676.282,4.291
676.545,4.255
676.809,4.211
677.072,4.165
677.336,4.125
677.599,4.102
677.863,4.082
678.126,4.071
678.389,4.067
678.653,4.058
678.916,4.035
679.179,3.991
679.442,3.948
679.706,3.923
679.969,3.904
680.232,3.886
680.495,3.869
680.758,3.854
681.021,3.828
681.284,3.786
681.547,3.740
681.810,3.713
682.073,3.711
682.336,3.710
682.599,3.693
682.862,3.666
683.125,3.647
683.388,3.640
683.651,3.630
683.913,3.615
684.176,3.575
684.439,3.527
684.702,3.472
684.964,3.436
685.227,3.415
685.490,3.413
685.752,3.419
686.015,3.410
686.277,3.385
686.540,3.344
686.802,3.301
687.065,3.273
687.327,3.261
687.590,3.252
687.852,3.231
688.115,3.199
688.377,3.172
688.639,3.157
688.902,3.143
689.164,3.132
689.426,3.126
689.689,3.121
689.951,3.098
690.213,3.063
690.475,3.029
690.737,3.005
691.000,2.980
691.262,2.958
691.524,2.949
691.786,2.955
692.048,2.962
692.310,2.949
692.572,2.910
692.834,2.866
693.096,2.845
693.358,2.849
693.620,2.862
693.882,2.865
694.144,2.849
694.406,2.817
694.668,2.787
694.930,2.763
695.192,2.743
695.453,2.728
695.715,2.713
695.977,2.694
696.239,2.667
696.501,2.650
696.762,2.647
697.024,2.643
697.286,2.622
697.548,2.602
697.809,2.591
698.071,2.582
698.333,2.566
698.594,2.547
698.856,2.542
699.118,2.537
699.379,2.528
699.641,2.515
699.902,2.506
700.164,2.494
700.426,2.475
700.687,2.443
700.949,2.425
701.210,2.416
701.472,2.410
701.733,2.397
701.995,2.384
702.256,2.372
702.518,2.362
702.779,2.345
703.041,2.349
703.302,2.362
703.563,2.362
703.825,2.338
704.086,2.309
704.348,2.293
704.609,2.289
704.871,2.298
705.132,2.309
705.393,2.297
705.655,2.275
705.916,2.259
706.177,2.255
706.439,2.252
706.700,2.244
706.961,2.235
707.223,2.228
707.484,2.202
707.745,2.176
708.007,2.145
708.268,2.118
708.529,2.094
708.790,2.061
709.052,2.040
709.313,2.025
709.574,2.022
709.835,2.018
710.097,2.002
710.358,1.969
710.619,1.937
710.881,1.907
711.142,1.891
711.403,1.875
711.664,1.869
711.926,1.853
712.187,1.848
712.448,1.845
712.709,1.854
712.970,1.859
713.232,1.861
713.493,1.862
713.754,1.861
714.015,1.861
714.277,1.864
714.538,1.868
714.799,1.875
715.060,1.874
715.322,1.867
715.583,1.849
715.844,1.829
716.105,1.808
716.367,1.791
716.628,1.785
716.889,1.778
717.150,1.763
717.411,1.739
717.673,1.727
717.934,1.724
718.195,1.722
718.457,1.706
718.718,1.682
718.979,1.668
719.240,1.671
719.502,1.685
719.763,1.697
720.024,1.698
720.286,1.693
720.547,1.675
720.808,1.658
721.069,1.648
721.331,1.653
721.592,1.671
721.853,1.679
722.115,1.681
722.376,1.677
722.638,1.671
722.899,1.663
723.160,1.646
723.422,1.630
723.683,1.618
723.944,1.621
724.206,1.621
724.467,1.620
724.729,1.615
724.990,1.624
725.252,1.634
725.513,1.625
725.775,1.602
726.036,1.581
726.298,1.577
726.559,1.588
726.821,1.594
727.082,1.596
727.344,1.586
727.605,1.579
727.867,1.569
728.128,1.572
728.390,1.578
728.652,1.593
728.913,1.613
729.175,1.625
729.436,1.626
729.698,1.625
729.960,1.618
730.221,1.604
730.483,1.577
730.745,1.565
731.007,1.565
731.268,1.567
731.530,1.569
731.792,1.564
732.054,1.566
732.315,1.571
732.577,1.581
732.839,1.579
733.101,1.568
733.363,1.557
733.625,1.552
733.887,1.554
734.149,1.556
734.411,1.567
734.673,1.579
734.935,1.586
735.197,1.582
735.459,1.585
735.721,1.587
735.983,1.579
