Wavelength (nm),Intensity W18.3,,C:/Users/Brend/Desktop/LED Spectras v2/Spectrometer Data (White).sp,,,W18.3,
379.792,2.389,,2018-06-15 12:54:50,,Integration Time,200 ms,
380.000,2.385,,Analyze Light,,Number of Scans to Average,25,
380.209,2.381,,,,Smoothing,1,
380.418,2.396
380.627,2.418
380.837,2.441
381.048,2.452
381.259,2.454
381.471,2.455
381.683,2.463
381.896,2.484
382.110,2.494
382.324,2.511
382.538,2.531
382.753,2.553
382.969,2.548
383.185,2.535
383.402,2.524
383.619,2.539
383.837,2.560
384.055,2.593
384.274,2.620
384.493,2.637
384.712,2.641
384.932,2.646
385.153,2.656
385.374,2.670
385.596,2.683
385.818,2.705
386.040,2.728
386.263,2.752
386.487,2.764
386.710,2.767
386.935,2.754
387.159,2.749
387.385,2.743
387.610,2.747
387.836,2.755
388.063,2.768
388.289,2.780
388.517,2.787
388.744,2.788
388.972,2.805
389.201,2.820
389.430,2.841
389.659,2.850
389.889,2.868
390.119,2.882
390.349,2.899
390.580,2.912
390.811,2.919
391.042,2.920
391.274,2.926
391.507,2.937
391.739,2.942
391.972,2.940
392.205,2.952
392.439,2.977
392.673,3.006
392.907,3.025
393.142,3.049
393.377,3.068
393.612,3.098
393.848,3.109
394.084,3.124
394.320,3.123
394.557,3.136
394.794,3.145
395.031,3.170
395.269,3.192
395.507,3.214
395.745,3.218
395.983,3.223
396.222,3.233
396.461,3.262
396.700,3.292
396.940,3.316
397.180,3.323
397.420,3.322
397.660,3.317
397.901,3.316
398.142,3.321
398.383,3.325
398.625,3.324
398.866,3.338
399.108,3.371
399.351,3.423
399.593,3.441
399.836,3.441
400.079,3.417
400.322,3.408
400.566,3.394
400.809,3.394
401.053,3.400
401.298,3.418
401.542,3.444
401.787,3.476
402.031,3.499
402.277,3.517
402.522,3.521
402.767,3.534
403.013,3.528
403.259,3.533
403.505,3.535
403.752,3.548
403.998,3.555
404.245,3.583
404.492,3.613
404.739,3.634
404.986,3.640
405.234,3.648
405.482,3.655
405.730,3.663
405.978,3.672
406.226,3.678
406.475,3.674
406.723,3.677
406.972,3.696
407.221,3.726
407.470,3.739
407.720,3.748
407.969,3.738
408.219,3.758
408.469,3.786
408.719,3.826
408.969,3.840
409.219,3.850
409.470,3.850
409.720,3.865
409.971,3.878
410.222,3.906
410.473,3.920
410.724,3.932
410.976,3.940
411.227,3.961
411.479,3.979
411.731,3.998
411.983,4.002
412.235,4.005
412.487,3.997
412.740,4.004
412.992,4.011
413.245,4.031
413.497,4.039
413.750,4.054
414.003,4.053
414.257,4.061
414.510,4.065
414.763,4.085
415.017,4.100
415.270,4.118
415.524,4.123
415.778,4.125
416.032,4.124
416.286,4.142
416.540,4.155
416.794,4.175
417.049,4.180
417.303,4.195
417.558,4.207
417.812,4.216
418.067,4.217
418.322,4.225
418.577,4.231
418.832,4.235
419.088,4.223
419.343,4.229
419.598,4.226
419.854,4.242
420.109,4.256
420.365,4.290
420.621,4.307
420.876,4.329
421.132,4.338
421.388,4.349
421.645,4.346
421.901,4.357
422.157,4.372
422.413,4.398
422.670,4.414
422.926,4.440
423.183,4.451
423.439,4.481
423.696,4.514
423.953,4.584
424.210,4.642
424.467,4.679
424.724,4.687
424.981,4.695
425.238,4.722
425.495,4.781
425.753,4.841
426.010,4.905
426.267,4.951
426.525,5.016
426.782,5.072
427.040,5.139
427.298,5.202
427.555,5.286
427.813,5.360
428.071,5.438
428.329,5.507
428.587,5.585
428.845,5.668
429.103,5.767
429.361,5.868
429.619,5.971
429.878,6.074
430.136,6.205
430.394,6.337
430.653,6.491
430.911,6.639
431.170,6.796
431.428,6.935
431.687,7.083
431.946,7.229
432.204,7.389
432.463,7.563
432.722,7.754
432.981,7.950
433.240,8.157
433.499,8.371
433.758,8.606
434.017,8.827
434.276,9.055
434.535,9.279
434.794,9.527
435.053,9.788
435.312,10.069
435.572,10.348
435.831,10.648
436.090,10.962
436.350,11.298
436.609,11.632
436.869,11.973
437.128,12.321
437.388,12.680
437.647,13.050
437.907,13.443
438.166,13.849
438.426,14.267
438.686,14.685
438.946,15.127
439.205,15.590
439.465,16.083
439.725,16.596
439.985,17.126
440.245,17.645
440.505,18.173
440.765,18.707
441.025,19.261
441.285,19.832
441.545,20.426
441.805,21.037
442.065,21.663
442.325,22.297
442.585,22.982
442.846,23.700
443.106,24.484
443.366,25.285
443.626,26.121
443.887,26.960
444.147,27.833
444.407,28.732
444.668,29.680
444.928,30.680
445.189,31.750
445.449,32.864
445.710,34.033
445.970,35.242
446.231,36.513
446.491,37.852
446.752,39.256
447.012,40.719
447.273,42.246
447.534,43.823
447.794,45.461
448.055,47.152
448.316,48.954
448.577,50.862
448.837,52.851
449.098,54.885
449.359,56.945
449.620,59.036
449.881,61.143
450.142,63.282
450.403,65.474
450.664,67.728
450.924,70.027
451.185,72.308
451.446,74.562
451.707,76.761
451.969,78.928
452.230,81.015
452.491,82.946
452.752,84.617
453.013,85.994
453.274,87.131
453.535,88.095
453.796,88.938
454.058,89.660
454.319,90.288
454.580,90.813
454.841,91.251
455.103,91.588
455.364,91.838
455.625,92.013
455.887,92.128
456.148,92.182
456.409,92.176
456.671,92.110
456.932,91.988
457.194,91.809
457.455,91.570
457.716,91.269
457.978,90.890
458.239,90.435
458.501,89.907
458.763,89.289
459.024,88.585
459.286,87.769
459.547,86.829
459.809,85.687
460.071,84.306
460.332,82.701
460.594,80.923
460.856,79.074
461.117,77.189
461.379,75.331
461.641,73.496
461.903,71.714
462.164,69.993
462.426,68.342
462.688,66.768
462.950,65.265
463.212,63.853
463.474,62.505
463.736,61.217
463.998,60.003
464.260,58.901
464.522,57.908
464.784,56.995
465.046,56.145
465.308,55.377
465.570,54.689
465.832,54.062
466.094,53.478
466.356,52.928
466.618,52.408
466.880,51.909
467.142,51.434
467.405,50.979
467.667,50.570
467.929,50.155
468.191,49.747
468.454,49.299
468.716,48.856
468.978,48.387
469.241,47.893
469.503,47.384
469.765,46.888
470.028,46.407
470.290,45.912
470.552,45.395
470.815,44.858
471.077,44.295
471.340,43.723
471.602,43.150
471.865,42.555
472.128,41.932
472.390,41.289
472.653,40.639
472.915,39.975
473.178,39.287
473.441,38.597
473.703,37.886
473.966,37.166
474.229,36.433
474.492,35.721
474.755,34.998
475.017,34.304
475.280,33.615
475.543,32.957
475.806,32.278
476.069,31.607
476.332,30.950
476.595,30.330
476.858,29.731
477.121,29.150
477.384,28.595
477.647,28.084
477.910,27.603
478.173,27.143
478.436,26.676
478.699,26.243
478.962,25.838
479.226,25.488
479.489,25.130
479.752,24.795
480.015,24.459
480.279,24.161
480.542,23.869
480.805,23.595
481.069,23.324
481.332,23.075
481.595,22.861
481.859,22.696
482.122,22.532
482.386,22.352
482.649,22.154
482.913,21.966
483.177,21.784
483.440,21.610
483.704,21.454
483.967,21.333
484.231,21.231
484.495,21.149
484.759,21.057
485.022,20.947
485.286,20.822
485.550,20.698
485.814,20.561
486.078,20.426
486.342,20.296
486.606,20.201
486.869,20.113
487.133,20.041
487.397,19.965
487.662,19.890
487.926,19.793
488.190,19.705
488.454,19.612
488.718,19.533
488.982,19.435
489.246,19.353
489.511,19.264
489.775,19.190
490.039,19.108
490.304,19.030
490.568,18.943
490.832,18.883
491.097,18.842
491.361,18.818
491.626,18.773
491.890,18.737
492.155,18.706
492.419,18.701
492.684,18.679
492.949,18.667
493.213,18.661
493.478,18.691
493.743,18.718
494.008,18.728
494.272,18.731
494.537,18.767
494.802,18.831
495.067,18.910
495.332,18.985
495.597,19.066
495.862,19.140
496.127,19.228
496.392,19.310
496.657,19.395
496.922,19.472
497.187,19.578
497.452,19.702
497.718,19.858
497.983,20.006
498.248,20.153
498.513,20.277
498.779,20.426
499.044,20.579
499.310,20.725
499.575,20.833
499.841,20.953
500.106,21.085
500.372,21.232
500.637,21.379
500.903,21.554
501.168,21.728
501.434,21.893
501.700,22.032
501.966,22.187
502.231,22.331
502.497,22.487
502.763,22.623
503.029,22.765
503.295,22.902
503.561,23.051
503.827,23.210
504.093,23.376
504.359,23.541
504.625,23.716
504.891,23.871
505.157,24.046
505.423,24.199
505.690,24.358
505.956,24.498
506.222,24.655
506.489,24.840
506.755,25.037
507.021,25.219
507.288,25.385
507.554,25.537
507.821,25.700
508.087,25.865
508.354,26.048
508.621,26.213
508.887,26.360
509.154,26.497
509.421,26.646
509.687,26.797
509.954,26.940
510.221,27.081
510.488,27.247
510.755,27.424
511.022,27.597
511.289,27.735
511.556,27.874
511.823,28.016
512.090,28.185
512.357,28.326
512.624,28.461
512.891,28.581
513.159,28.709
513.426,28.840
513.693,28.974
513.960,29.115
514.228,29.268
514.495,29.416
514.763,29.563
515.030,29.688
515.298,29.814
515.565,29.938
515.833,30.066
516.100,30.174
516.368,30.262
516.636,30.331
516.904,30.424
517.171,30.524
517.439,30.653
517.707,30.780
517.975,30.930
518.243,31.070
518.511,31.209
518.779,31.309
519.047,31.419
519.315,31.515
519.583,31.612
519.851,31.685
520.119,31.774
520.387,31.873
520.656,31.983
520.924,32.085
521.192,32.191
521.461,32.302
521.729,32.414
521.997,32.507
522.266,32.587
522.534,32.655
522.803,32.736
523.071,32.816
523.340,32.907
523.609,32.999
523.877,33.088
524.146,33.169
524.415,33.247
524.684,33.334
524.952,33.415
525.221,33.496
525.490,33.598
525.759,33.700
526.028,33.780
526.297,33.799
526.566,33.822
526.835,33.867
527.104,33.941
527.373,34.014
527.642,34.078
527.912,34.127
528.181,34.176
528.450,34.245
528.719,34.325
528.989,34.399
529.258,34.452
529.528,34.482
529.797,34.505
530.067,34.535
530.336,34.575
530.606,34.608
530.875,34.622
531.145,34.641
531.414,34.674
531.684,34.721
531.954,34.761
532.224,34.800
532.493,34.828
532.763,34.856
533.033,34.898
533.303,34.943
533.573,34.995
533.843,35.011
534.113,35.030
534.383,35.031
534.653,35.061
534.923,35.093
535.193,35.137
535.463,35.161
535.733,35.183
536.004,35.211
536.274,35.252
536.544,35.275
536.814,35.281
537.085,35.294
537.355,35.347
537.626,35.420
537.896,35.478
538.166,35.506
538.437,35.530
538.707,35.553
538.978,35.600
539.249,35.663
539.519,35.744
539.790,35.793
540.061,35.826
540.331,35.840
540.602,35.867
540.873,35.883
541.144,35.907
541.414,35.924
541.685,35.961
541.956,35.998
542.227,36.042
542.498,36.073
542.769,36.098
543.040,36.123
543.311,36.162
543.582,36.227
543.853,36.300
544.124,36.358
544.396,36.396
544.667,36.414
544.938,36.433
545.209,36.409
545.480,36.386
545.752,36.344
546.023,36.331
546.294,36.295
546.566,36.271
546.837,36.238
547.109,36.230
547.380,36.218
547.652,36.221
547.923,36.223
548.195,36.234
548.466,36.244
548.738,36.254
549.009,36.243
549.281,36.216
549.553,36.182
549.824,36.156
550.096,36.146
550.368,36.146
550.640,36.161
550.911,36.173
551.183,36.184
551.455,36.178
551.727,36.154
551.999,36.108
552.271,36.053
552.543,36.021
552.815,36.007
553.087,36.021
553.359,36.023
553.631,36.014
553.903,35.976
554.175,35.937
554.447,35.892
554.719,35.859
554.991,35.814
555.263,35.781
555.535,35.742
555.808,35.714
556.080,35.678
556.352,35.645
556.624,35.599
556.897,35.542
557.169,35.476
557.441,35.416
557.714,35.344
557.986,35.294
558.258,35.262
558.531,35.275
558.803,35.271
559.076,35.249
559.348,35.195
559.621,35.148
559.893,35.097
560.166,35.053
560.438,35.007
560.711,34.986
560.983,34.986
561.256,35.007
561.528,35.001
561.801,34.974
562.074,34.925
562.346,34.882
562.619,34.835
562.892,34.777
563.164,34.718
563.437,34.677
563.710,34.638
563.983,34.588
564.255,34.534
564.528,34.525
564.801,34.550
565.074,34.576
565.346,34.561
565.619,34.520
565.892,34.469
566.165,34.405
566.438,34.304
566.711,34.191
566.984,34.100
567.257,34.042
567.529,34.002
567.802,33.987
568.075,33.976
568.348,33.955
568.621,33.916
568.894,33.868
569.167,33.816
569.440,33.730
569.713,33.617
569.986,33.497
570.259,33.381
570.532,33.290
570.805,33.207
571.078,33.138
571.351,33.078
571.625,33.023
571.898,32.958
572.171,32.869
572.444,32.765
572.717,32.672
572.990,32.582
573.263,32.479
573.536,32.363
573.809,32.250
574.083,32.158
574.356,32.091
574.629,32.055
574.902,32.023
575.175,31.970
575.448,31.885
575.721,31.779
575.995,31.680
576.268,31.594
576.541,31.534
576.814,31.477
577.087,31.430
577.361,31.386
577.634,31.345
577.907,31.276
578.180,31.193
578.453,31.097
578.727,31.016
579.000,30.934
579.273,30.872
579.546,30.823
579.820,30.786
580.093,30.738
580.366,30.675
580.639,30.609
580.913,30.555
581.186,30.503
581.459,30.443
581.732,30.353
582.005,30.264
582.279,30.160
582.552,30.067
582.825,29.967
583.098,29.882
583.372,29.804
583.645,29.755
583.918,29.731
584.191,29.719
584.464,29.690
584.738,29.636
585.011,29.554
585.284,29.453
585.557,29.329
585.831,29.209
586.104,29.108
586.377,29.050
586.650,29.006
586.923,28.968
587.196,28.920
587.470,28.864
587.743,28.804
588.016,28.746
588.289,28.692
588.562,28.639
588.835,28.552
589.109,28.435
589.382,28.304
589.655,28.200
589.928,28.133
590.201,28.092
590.474,28.065
590.747,28.028
591.020,27.970
591.293,27.882
591.567,27.782
591.840,27.670
592.113,27.553
592.386,27.427
592.659,27.292
592.932,27.179
593.205,27.092
593.478,27.027
593.751,26.966
594.024,26.911
594.297,26.842
594.570,26.759
594.843,26.662
595.116,26.566
595.389,26.458
595.662,26.341
595.934,26.225
596.207,26.134
596.480,26.054
596.753,25.983
597.026,25.902
597.299,25.834
597.572,25.756
597.844,25.667
598.117,25.541
598.390,25.410
598.663,25.272
598.936,25.142
599.208,25.013
599.481,24.905
599.754,24.811
600.026,24.725
600.299,24.634
600.572,24.544
600.844,24.442
601.117,24.323
601.390,24.194
601.662,24.072
601.935,23.942
602.207,23.810
602.480,23.675
602.752,23.549
603.025,23.400
603.297,23.260
603.570,23.150
603.842,23.090
604.115,23.020
604.387,22.938
604.660,22.820
604.932,22.708
605.204,22.577
605.477,22.452
605.749,22.323
606.021,22.213
606.294,22.104
606.566,21.979
606.838,21.857
607.110,21.755
607.383,21.679
607.655,21.613
607.927,21.549
608.199,21.488
608.471,21.406
608.743,21.291
609.015,21.155
609.287,21.016
609.559,20.877
609.831,20.752
610.103,20.631
610.375,20.517
610.647,20.387
610.919,20.248
611.191,20.106
611.463,19.976
611.735,19.843
612.007,19.707
612.278,19.567
612.550,19.439
612.822,19.312
613.094,19.187
613.365,19.044
613.637,18.910
613.909,18.761
614.180,18.632
614.452,18.498
614.723,18.373
614.995,18.240
615.266,18.128
615.538,18.033
615.809,17.956
616.081,17.860
616.352,17.756
616.623,17.633
616.895,17.508
617.166,17.362
617.437,17.213
617.709,17.071
617.980,16.960
618.251,16.877
618.522,16.820
618.793,16.767
619.065,16.734
619.336,16.669
619.607,16.582
619.878,16.469
620.149,16.364
620.420,16.243
620.691,16.106
620.962,15.969
621.232,15.867
621.503,15.762
621.774,15.676
622.045,15.589
622.316,15.536
622.586,15.473
622.857,15.416
623.128,15.325
623.398,15.233
623.669,15.126
623.940,15.030
624.210,14.927
624.481,14.849
624.751,14.764
625.021,14.689
625.292,14.601
625.562,14.535
625.833,14.469
626.103,14.406
626.373,14.331
626.643,14.257
626.914,14.168
627.184,14.079
627.454,13.990
627.724,13.905
627.994,13.826
628.264,13.742
628.534,13.654
628.804,13.563
629.074,13.490
629.344,13.432
629.614,13.385
629.884,13.334
630.154,13.275
630.424,13.206
630.693,13.128
630.963,13.049
631.233,12.957
631.502,12.877
631.772,12.802
632.041,12.736
632.311,12.647
632.581,12.551
632.850,12.455
633.119,12.367
633.389,12.284
633.658,12.217
633.928,12.180
634.197,12.166
634.466,12.149
634.735,12.111
635.004,12.042
635.274,11.959
635.543,11.873
635.812,11.794
636.081,11.729
636.350,11.678
636.619,11.628
636.888,11.570
637.157,11.506
637.426,11.452
637.694,11.398
637.963,11.344
638.232,11.289
638.501,11.232
638.769,11.181
639.038,11.120
639.307,11.059
639.575,10.991
639.844,10.901
640.112,10.812
640.381,10.725
640.649,10.662
640.917,10.608
641.186,10.553
641.454,10.506
641.722,10.452
641.991,10.393
642.259,10.319
642.527,10.249
642.795,10.187
643.063,10.122
643.331,10.063
643.599,10.012
643.867,9.990
644.135,9.965
644.403,9.938
644.671,9.887
644.939,9.833
645.206,9.769
645.474,9.718
645.742,9.663
646.009,9.604
646.277,9.545
646.545,9.486
646.812,9.445
647.080,9.400
647.347,9.347
647.615,9.277
647.882,9.190
648.149,9.107
648.417,9.032
648.684,8.979
648.951,8.944
649.219,8.909
649.486,8.865
649.753,8.807
650.020,8.743
650.287,8.678
650.554,8.607
650.821,8.535
651.088,8.460
651.355,8.409
651.622,8.355
651.889,8.314
652.155,8.260
652.422,8.221
652.689,8.182
652.956,8.143
653.222,8.099
653.489,8.062
653.755,8.012
654.022,7.939
654.288,7.836
654.555,7.745
654.821,7.676
655.088,7.627
655.354,7.579
655.620,7.539
655.887,7.493
656.153,7.446
656.419,7.390
656.685,7.336
656.951,7.283
657.217,7.229
657.483,7.174
657.749,7.120
658.015,7.071
658.281,7.022
658.547,6.962
658.813,6.900
659.079,6.835
659.345,6.769
659.610,6.706
659.876,6.654
660.142,6.613
660.407,6.575
660.673,6.535
660.939,6.503
661.204,6.461
661.470,6.417
661.735,6.372
662.000,6.340
662.266,6.303
662.531,6.256
662.796,6.198
663.062,6.140
663.327,6.083
663.592,6.040
663.857,6.006
664.122,5.974
664.388,5.932
664.653,5.891
664.918,5.852
665.183,5.817
665.448,5.784
665.712,5.757
665.977,5.733
666.242,5.706
666.507,5.645
666.772,5.579
667.037,5.511
667.301,5.475
667.566,5.433
667.831,5.397
668.095,5.359
668.360,5.327
668.624,5.283
668.889,5.251
669.153,5.214
669.418,5.186
669.682,5.151
669.946,5.126
670.211,5.113
670.475,5.094
670.739,5.077
671.004,5.057
671.268,5.049
671.532,5.049
671.796,4.993
672.060,4.920
672.324,4.836
672.588,4.809
672.852,4.797
673.116,4.818
673.380,4.842
673.644,4.792
673.908,4.695
674.172,4.590
674.436,4.559
674.700,4.545
674.963,4.529
675.227,4.501
675.491,4.455
675.754,4.411
676.018,4.362
676.282,4.331
676.545,4.293
676.809,4.250
677.072,4.202
677.336,4.161
677.599,4.136
677.863,4.118
678.126,4.107
678.389,4.100
678.653,4.091
678.916,4.067
679.179,4.025
679.442,3.983
679.706,3.955
679.969,3.933
680.232,3.915
680.495,3.903
680.758,3.890
681.021,3.861
681.284,3.816
681.547,3.774
681.810,3.753
682.073,3.753
682.336,3.749
682.599,3.729
682.862,3.697
683.125,3.676
683.388,3.662
683.651,3.648
683.913,3.628
684.176,3.592
684.439,3.547
684.702,3.491
684.964,3.450
685.227,3.428
685.490,3.426
685.752,3.433
686.015,3.419
686.277,3.389
686.540,3.347
686.802,3.310
687.065,3.287
687.327,3.274
687.590,3.265
687.852,3.247
688.115,3.219
688.377,3.197
688.639,3.178
688.902,3.161
689.164,3.141
689.426,3.134
689.689,3.132
689.951,3.117
690.213,3.087
690.475,3.053
690.737,3.025
691.000,3.001
691.262,2.978
691.524,2.969
691.786,2.969
692.048,2.973
692.310,2.959
692.572,2.923
692.834,2.883
693.096,2.861
693.358,2.859
693.620,2.866
693.882,2.869
694.144,2.859
694.406,2.830
694.668,2.801
694.930,2.774
695.192,2.756
695.453,2.741
695.715,2.729
695.977,2.708
696.239,2.679
696.501,2.658
696.762,2.656
697.024,2.655
697.286,2.642
697.548,2.626
697.809,2.612
698.071,2.598
698.333,2.581
698.594,2.563
698.856,2.555
699.118,2.544
699.379,2.533
699.641,2.523
699.902,2.518
700.164,2.505
700.426,2.487
700.687,2.463
700.949,2.450
701.210,2.435
701.472,2.416
701.733,2.391
701.995,2.380
702.256,2.376
702.518,2.370
702.779,2.354
703.041,2.353
703.302,2.365
703.563,2.359
703.825,2.337
704.086,2.311
704.348,2.300
704.609,2.296
704.871,2.299
705.132,2.310
705.393,2.301
705.655,2.286
705.916,2.271
706.177,2.269
706.439,2.267
706.700,2.257
706.961,2.241
707.223,2.226
707.484,2.197
707.745,2.171
708.007,2.144
708.268,2.121
708.529,2.094
708.790,2.057
709.052,2.033
709.313,2.025
709.574,2.027
709.835,2.027
710.097,2.008
710.358,1.977
710.619,1.951
710.881,1.930
711.142,1.919
711.403,1.900
711.664,1.886
711.926,1.869
712.187,1.867
712.448,1.868
712.709,1.875
712.970,1.878
713.232,1.876
713.493,1.870
713.754,1.859
714.015,1.850
714.277,1.852
714.538,1.860
714.799,1.874
715.060,1.875
715.322,1.864
715.583,1.842
715.844,1.821
716.105,1.804
716.367,1.792
716.628,1.786
716.889,1.780
717.150,1.765
717.411,1.745
717.673,1.734
717.934,1.731
718.195,1.729
718.457,1.716
718.718,1.697
718.979,1.687
719.240,1.690
719.502,1.700
719.763,1.706
720.024,1.707
720.286,1.704
720.547,1.691
720.808,1.675
721.069,1.664
721.331,1.664
721.592,1.671
721.853,1.676
722.115,1.680
722.376,1.682
722.638,1.677
722.899,1.670
723.160,1.654
723.422,1.639
723.683,1.627
723.944,1.628
724.206,1.629
724.467,1.626
724.729,1.620
724.990,1.624
725.252,1.632
725.513,1.622
725.775,1.601
726.036,1.584
726.298,1.582
726.559,1.592
726.821,1.595
727.082,1.595
727.344,1.589
727.605,1.589
727.867,1.582
728.128,1.584
728.390,1.585
728.652,1.598
728.913,1.614
729.175,1.622
729.436,1.620
729.698,1.613
729.960,1.608
730.221,1.602
730.483,1.585
730.745,1.576
731.007,1.569
731.268,1.565
731.530,1.564
731.792,1.566
732.054,1.579
732.315,1.588
732.577,1.593
732.839,1.586
733.101,1.572
733.363,1.559
733.625,1.555
733.887,1.559
734.149,1.562
734.411,1.569
734.673,1.575
734.935,1.582
735.197,1.577
735.459,1.580
735.721,1.579
735.983,1.573
