Wavelength (nm),Intensity W6.1,,C:/Users/Brend/Desktop/LED Spectras v2/Spectrometer Data (White).sp,,,W6.1,
379.792,2.184,,2018-06-15 10:35:46,,Integration Time,186 ms,
380.000,2.182,,Analyze Light,,Number of Scans to Average,25,
380.209,2.178,,,,Smoothing,1,
380.418,2.188
380.627,2.207
380.837,2.230
381.048,2.245
381.259,2.247
381.471,2.244
381.683,2.247
381.896,2.265
382.110,2.272
382.324,2.288
382.538,2.305
382.753,2.328
382.969,2.325
383.185,2.312
383.402,2.301
383.619,2.310
383.837,2.326
384.055,2.350
384.274,2.369
384.493,2.384
384.712,2.391
384.932,2.397
385.153,2.405
385.374,2.418
385.596,2.429
385.818,2.448
386.040,2.467
386.263,2.489
386.487,2.497
386.710,2.498
386.935,2.486
387.159,2.482
387.385,2.476
387.610,2.478
387.836,2.485
388.063,2.497
388.289,2.508
388.517,2.517
388.744,2.519
388.972,2.539
389.201,2.549
389.430,2.561
389.659,2.562
389.889,2.574
390.119,2.586
390.349,2.598
390.580,2.609
390.811,2.619
391.042,2.626
391.274,2.630
391.507,2.637
391.739,2.644
391.972,2.646
392.205,2.657
392.439,2.674
392.673,2.699
392.907,2.714
393.142,2.730
393.377,2.739
393.612,2.753
393.848,2.760
394.084,2.769
394.320,2.772
394.557,2.784
394.794,2.793
395.031,2.806
395.269,2.819
395.507,2.836
395.745,2.845
395.983,2.853
396.222,2.861
396.461,2.885
396.700,2.914
396.940,2.931
397.180,2.931
397.420,2.922
397.660,2.916
397.901,2.918
398.142,2.924
398.383,2.928
398.625,2.926
398.866,2.935
399.108,2.960
399.351,3.005
399.593,3.020
399.836,3.017
400.079,2.993
400.322,2.983
400.566,2.978
400.809,2.982
401.053,2.991
401.298,3.001
401.542,3.015
401.787,3.037
402.031,3.058
402.277,3.078
402.522,3.082
402.767,3.094
403.013,3.091
403.259,3.100
403.505,3.102
403.752,3.109
403.998,3.113
404.245,3.140
404.492,3.172
404.739,3.200
404.986,3.208
405.234,3.213
405.482,3.216
405.730,3.216
405.978,3.221
406.226,3.222
406.475,3.220
406.723,3.222
406.972,3.240
407.221,3.265
407.470,3.282
407.720,3.293
407.969,3.286
408.219,3.291
408.469,3.299
408.719,3.323
408.969,3.332
409.219,3.350
409.470,3.362
409.720,3.384
409.971,3.400
410.222,3.427
410.473,3.440
410.724,3.442
410.976,3.443
411.227,3.459
411.479,3.473
411.731,3.486
411.983,3.484
412.235,3.488
412.487,3.481
412.740,3.489
412.992,3.496
413.245,3.513
413.497,3.517
413.750,3.523
414.003,3.523
414.257,3.530
414.510,3.530
414.763,3.543
415.017,3.555
415.270,3.569
415.524,3.568
415.778,3.573
416.032,3.579
416.286,3.601
416.540,3.615
416.794,3.632
417.049,3.636
417.303,3.644
417.558,3.647
417.812,3.654
418.067,3.660
418.322,3.676
418.577,3.684
418.832,3.688
419.088,3.679
419.343,3.687
419.598,3.688
419.854,3.708
420.109,3.724
420.365,3.761
420.621,3.789
420.876,3.823
421.132,3.839
421.388,3.854
421.645,3.857
421.901,3.876
422.157,3.897
422.413,3.927
422.670,3.949
422.926,3.975
423.183,3.995
423.439,4.037
423.696,4.082
423.953,4.158
424.210,4.225
424.467,4.280
424.724,4.310
424.981,4.337
425.238,4.381
425.495,4.452
425.753,4.524
426.010,4.598
426.267,4.657
426.525,4.738
426.782,4.816
427.040,4.906
427.298,4.997
427.555,5.106
427.813,5.205
428.071,5.304
428.329,5.395
428.587,5.501
428.845,5.611
429.103,5.735
429.361,5.858
429.619,5.987
429.878,6.118
430.136,6.272
430.394,6.423
430.653,6.602
430.911,6.785
431.170,6.984
431.428,7.164
431.687,7.346
431.946,7.521
432.204,7.720
432.463,7.934
432.722,8.167
432.981,8.394
433.240,8.636
433.499,8.887
433.758,9.170
434.017,9.439
434.276,9.714
434.535,9.975
434.794,10.262
435.053,10.558
435.312,10.877
435.572,11.196
435.831,11.537
436.090,11.887
436.350,12.264
436.609,12.649
436.869,13.037
437.128,13.425
437.388,13.835
437.647,14.270
437.907,14.725
438.166,15.173
438.426,15.629
438.686,16.085
438.946,16.564
439.205,17.061
439.465,17.590
439.725,18.144
439.985,18.719
440.245,19.291
440.505,19.889
440.765,20.485
441.025,21.090
441.285,21.699
441.545,22.327
441.805,22.991
442.065,23.670
442.325,24.393
442.585,25.150
442.846,25.948
443.106,26.788
443.366,27.677
443.626,28.599
443.887,29.556
444.147,30.548
444.407,31.593
444.668,32.681
444.928,33.818
445.189,35.022
445.449,36.282
445.710,37.610
445.970,39.001
446.231,40.470
446.491,42.020
446.752,43.642
447.012,45.322
447.273,47.060
447.534,48.850
447.794,50.697
448.055,52.597
448.316,54.588
448.577,56.674
448.837,58.836
449.098,61.040
449.359,63.255
449.620,65.461
449.881,67.651
450.142,69.853
450.403,72.085
450.664,74.360
450.924,76.633
451.185,78.868
451.446,81.014
451.707,82.971
451.969,84.676
452.230,86.073
452.491,87.228
452.752,88.188
453.013,89.027
453.274,89.752
453.535,90.385
453.796,90.900
454.058,91.314
454.319,91.624
454.580,91.847
454.841,91.995
455.103,92.072
455.364,92.088
455.625,92.047
455.887,91.952
456.148,91.806
456.409,91.596
456.671,91.311
456.932,90.932
457.194,90.470
457.455,89.930
457.716,89.303
457.978,88.582
458.239,87.742
458.501,86.779
458.763,85.641
459.024,84.275
459.286,82.674
459.547,80.870
459.809,78.959
460.071,77.007
460.332,75.067
460.594,73.165
460.856,71.322
461.117,69.547
461.379,67.856
461.641,66.238
461.903,64.690
462.164,63.213
462.426,61.830
462.688,60.542
462.950,59.341
463.212,58.201
463.474,57.106
463.736,56.065
463.998,55.120
464.260,54.296
464.522,53.561
464.784,52.886
465.046,52.251
465.308,51.663
465.570,51.119
465.832,50.611
466.094,50.133
466.356,49.665
466.618,49.197
466.880,48.712
467.142,48.227
467.405,47.754
467.667,47.324
467.929,46.899
468.191,46.471
468.454,46.011
468.716,45.523
468.978,44.978
469.241,44.397
469.503,43.801
469.765,43.222
470.028,42.642
470.290,42.046
470.552,41.425
470.815,40.780
471.077,40.123
471.340,39.449
471.602,38.770
471.865,38.084
472.128,37.399
472.390,36.727
472.653,36.049
472.915,35.370
473.178,34.676
473.441,33.990
473.703,33.292
473.966,32.598
474.229,31.896
474.492,31.213
474.755,30.537
475.017,29.896
475.280,29.280
475.543,28.707
475.806,28.126
476.069,27.551
476.332,26.980
476.595,26.454
476.858,25.957
477.121,25.482
477.384,25.031
477.647,24.616
477.910,24.234
478.173,23.882
478.436,23.531
478.699,23.208
478.962,22.902
479.226,22.645
479.489,22.389
479.752,22.150
480.015,21.907
480.279,21.686
480.542,21.466
480.805,21.261
481.069,21.059
481.332,20.882
481.595,20.728
481.859,20.612
482.122,20.498
482.386,20.366
482.649,20.217
482.913,20.071
483.177,19.927
483.440,19.784
483.704,19.659
483.967,19.559
484.231,19.476
484.495,19.406
484.759,19.331
485.022,19.238
485.286,19.127
485.550,19.023
485.814,18.903
486.078,18.786
486.342,18.671
486.606,18.594
486.869,18.519
487.133,18.455
487.397,18.390
487.662,18.334
487.926,18.260
488.190,18.182
488.454,18.098
488.718,18.034
488.982,17.972
489.246,17.926
489.511,17.867
489.775,17.810
490.039,17.753
490.304,17.706
490.568,17.663
490.832,17.633
491.097,17.621
491.361,17.623
491.626,17.629
491.890,17.640
492.155,17.663
492.419,17.699
492.684,17.728
492.949,17.761
493.213,17.794
493.478,17.860
493.743,17.916
494.008,17.965
494.272,18.008
494.537,18.091
494.802,18.189
495.067,18.304
495.332,18.417
495.597,18.551
495.862,18.672
496.127,18.795
496.392,18.905
496.657,19.029
496.922,19.157
497.187,19.305
497.452,19.460
497.718,19.642
497.983,19.813
498.248,19.984
498.513,20.134
498.779,20.307
499.044,20.476
499.310,20.630
499.575,20.753
499.841,20.889
500.106,21.041
500.372,21.217
500.637,21.401
500.903,21.613
501.168,21.811
501.434,21.989
501.700,22.132
501.966,22.297
502.231,22.475
502.497,22.666
502.763,22.832
503.029,22.990
503.295,23.148
503.561,23.323
503.827,23.504
504.093,23.679
504.359,23.837
504.625,24.011
504.891,24.176
505.157,24.360
505.423,24.523
505.690,24.683
505.956,24.842
506.222,25.023
506.489,25.228
506.755,25.439
507.021,25.635
507.288,25.829
507.554,26.005
507.821,26.181
508.087,26.346
508.354,26.535
508.621,26.705
508.887,26.866
509.154,27.016
509.421,27.187
509.687,27.355
509.954,27.518
510.221,27.677
510.488,27.867
510.755,28.061
511.022,28.251
511.289,28.417
511.556,28.572
511.823,28.709
512.090,28.852
512.357,28.980
512.624,29.129
512.891,29.273
513.159,29.425
513.426,29.577
513.693,29.739
513.960,29.894
514.228,30.039
514.495,30.171
514.763,30.312
515.030,30.450
515.298,30.587
515.565,30.726
515.833,30.868
516.100,30.996
516.368,31.105
516.636,31.203
516.904,31.323
517.171,31.441
517.439,31.562
517.707,31.673
517.975,31.803
518.243,31.926
518.511,32.040
518.779,32.128
519.047,32.237
519.315,32.344
519.583,32.443
519.851,32.514
520.119,32.589
520.387,32.684
520.656,32.796
520.924,32.910
521.192,33.030
521.461,33.132
521.729,33.224
521.997,33.293
522.266,33.370
522.534,33.456
522.803,33.557
523.071,33.658
523.340,33.759
523.609,33.841
523.877,33.920
524.146,33.991
524.415,34.073
524.684,34.159
524.952,34.251
525.221,34.343
525.490,34.445
525.759,34.534
526.028,34.613
526.297,34.652
526.566,34.696
526.835,34.750
527.104,34.824
527.373,34.894
527.642,34.953
527.912,35.005
528.181,35.062
528.450,35.127
528.719,35.194
528.989,35.254
529.258,35.309
529.528,35.351
529.797,35.387
530.067,35.421
530.336,35.460
530.606,35.494
530.875,35.523
531.145,35.553
531.414,35.589
531.684,35.626
531.954,35.657
532.224,35.683
532.493,35.696
532.763,35.714
533.033,35.739
533.303,35.765
533.573,35.788
533.843,35.797
534.113,35.829
534.383,35.851
534.653,35.897
534.923,35.946
535.193,36.005
535.463,36.043
535.733,36.059
536.004,36.060
536.274,36.065
536.544,36.064
536.814,36.090
537.085,36.125
537.355,36.191
537.626,36.256
537.896,36.312
538.166,36.334
538.437,36.338
538.707,36.334
538.978,36.363
539.249,36.435
539.519,36.529
539.790,36.599
540.061,36.637
540.331,36.652
540.602,36.664
540.873,36.655
541.144,36.652
541.414,36.644
541.685,36.671
541.956,36.700
542.227,36.736
542.498,36.757
542.769,36.788
543.040,36.837
543.311,36.899
543.582,36.968
543.853,37.030
544.124,37.073
544.396,37.104
544.667,37.128
544.938,37.170
545.209,37.167
545.480,37.160
545.752,37.128
546.023,37.121
546.294,37.082
546.566,37.039
546.837,36.990
547.109,36.970
547.380,36.959
547.652,36.956
547.923,36.950
548.195,36.954
548.466,36.962
548.738,36.976
549.009,36.968
549.281,36.945
549.553,36.906
549.824,36.872
550.096,36.854
550.368,36.863
550.640,36.882
550.911,36.902
551.183,36.923
551.455,36.944
551.727,36.941
551.999,36.894
552.271,36.812
552.543,36.750
552.815,36.711
553.087,36.714
553.359,36.726
553.631,36.735
553.903,36.714
554.175,36.682
554.447,36.641
554.719,36.602
554.991,36.546
555.263,36.495
555.535,36.444
555.808,36.419
556.080,36.395
556.352,36.372
556.624,36.330
556.897,36.276
557.169,36.215
557.441,36.144
557.714,36.049
557.986,35.967
558.258,35.896
558.531,35.877
558.803,35.861
559.076,35.853
559.348,35.826
559.621,35.794
559.893,35.760
560.166,35.726
560.438,35.683
560.711,35.650
560.983,35.637
561.256,35.645
561.528,35.635
561.801,35.595
562.074,35.529
562.346,35.476
562.619,35.423
562.892,35.370
563.164,35.303
563.437,35.257
563.710,35.211
563.983,35.168
564.255,35.121
564.528,35.114
564.801,35.130
565.074,35.157
565.346,35.146
565.619,35.110
565.892,35.047
566.165,34.968
566.438,34.866
566.711,34.767
566.984,34.678
567.257,34.611
567.529,34.558
567.802,34.541
568.075,34.533
568.348,34.516
568.621,34.479
568.894,34.425
569.167,34.362
569.440,34.282
569.713,34.181
569.986,34.082
570.259,33.967
570.532,33.869
570.805,33.767
571.078,33.684
571.351,33.604
571.625,33.537
571.898,33.465
572.171,33.399
572.444,33.325
572.717,33.263
572.990,33.188
573.263,33.087
573.536,32.940
573.809,32.790
574.083,32.667
574.356,32.593
574.629,32.542
574.902,32.493
575.175,32.435
575.448,32.366
575.721,32.285
575.995,32.195
576.268,32.103
576.541,32.028
576.814,31.953
577.087,31.887
577.361,31.822
577.634,31.768
577.907,31.700
578.180,31.624
578.453,31.537
578.727,31.460
579.000,31.386
579.273,31.330
579.546,31.277
579.820,31.232
580.093,31.173
580.366,31.109
580.639,31.036
580.913,30.969
581.186,30.905
581.459,30.845
581.732,30.763
582.005,30.683
582.279,30.590
582.552,30.504
582.825,30.399
583.098,30.302
583.372,30.220
583.645,30.162
583.918,30.115
584.191,30.079
584.464,30.035
584.738,29.980
585.011,29.911
585.284,29.826
585.557,29.713
585.831,29.579
586.104,29.451
586.377,29.358
586.650,29.279
586.923,29.219
587.196,29.163
587.470,29.127
587.743,29.098
588.016,29.075
588.289,29.037
588.562,28.976
588.835,28.873
589.109,28.746
589.382,28.618
589.655,28.516
589.928,28.430
590.201,28.356
590.474,28.304
590.747,28.271
591.020,28.240
591.293,28.183
591.567,28.100
591.840,27.999
592.113,27.871
592.386,27.726
592.659,27.568
592.932,27.437
593.205,27.338
593.478,27.261
593.751,27.187
594.024,27.129
594.297,27.071
594.570,27.011
594.843,26.940
595.116,26.868
595.389,26.787
595.662,26.684
595.934,26.567
596.207,26.452
596.480,26.338
596.753,26.236
597.026,26.134
597.299,26.054
597.572,25.983
597.844,25.916
598.117,25.818
598.390,25.699
598.663,25.564
598.936,25.437
599.208,25.311
599.481,25.192
599.754,25.074
600.026,24.957
600.299,24.846
600.572,24.748
600.844,24.640
601.117,24.525
601.390,24.396
601.662,24.280
601.935,24.158
602.207,24.037
602.480,23.903
602.752,23.765
603.025,23.608
603.297,23.461
603.570,23.336
603.842,23.257
604.115,23.181
604.387,23.112
604.660,23.007
604.932,22.893
605.204,22.763
605.477,22.644
605.749,22.532
606.021,22.419
606.294,22.288
606.566,22.135
606.838,21.987
607.110,21.861
607.383,21.759
607.655,21.671
607.927,21.598
608.199,21.544
608.471,21.472
608.743,21.379
609.015,21.249
609.287,21.113
609.559,20.962
609.831,20.832
610.103,20.696
610.375,20.570
610.647,20.421
610.919,20.275
611.191,20.135
611.463,20.015
611.735,19.884
612.007,19.735
612.278,19.579
612.550,19.442
612.822,19.326
613.094,19.208
613.365,19.065
613.637,18.927
613.909,18.781
614.180,18.649
614.452,18.504
614.723,18.367
614.995,18.236
615.266,18.131
615.538,18.046
615.809,17.980
616.081,17.888
616.352,17.779
616.623,17.649
616.895,17.528
617.166,17.396
617.437,17.251
617.709,17.100
617.980,16.976
618.251,16.883
618.522,16.817
618.793,16.758
619.065,16.716
619.336,16.645
619.607,16.554
619.878,16.440
620.149,16.341
620.420,16.230
620.691,16.112
620.962,15.996
621.232,15.905
621.503,15.802
621.774,15.690
622.045,15.577
622.316,15.501
622.586,15.435
622.857,15.386
623.128,15.306
623.398,15.220
623.669,15.112
623.940,15.015
624.210,14.914
624.481,14.823
624.751,14.722
625.021,14.632
625.292,14.538
625.562,14.473
625.833,14.407
626.103,14.347
626.373,14.268
626.643,14.196
626.914,14.114
627.184,14.034
627.454,13.949
627.724,13.861
627.994,13.770
628.264,13.671
628.534,13.567
628.804,13.478
629.074,13.408
629.344,13.349
629.614,13.285
629.884,13.222
630.154,13.175
630.424,13.126
630.693,13.066
630.963,12.989
631.233,12.904
631.502,12.823
631.772,12.747
632.041,12.673
632.311,12.580
632.581,12.471
632.850,12.364
633.119,12.270
633.389,12.193
633.658,12.133
633.928,12.102
634.197,12.091
634.466,12.084
634.735,12.059
635.004,12.001
635.274,11.927
635.543,11.842
635.812,11.764
636.081,11.687
636.350,11.622
636.619,11.555
636.888,11.483
637.157,11.402
637.426,11.337
637.694,11.285
637.963,11.241
638.232,11.194
638.501,11.142
638.769,11.092
639.038,11.039
639.307,10.984
639.575,10.923
639.844,10.843
640.112,10.760
640.381,10.667
640.649,10.593
640.917,10.528
641.186,10.471
641.454,10.416
641.722,10.361
641.991,10.306
642.259,10.237
642.527,10.166
642.795,10.101
643.063,10.036
643.331,9.977
643.599,9.920
643.867,9.890
644.135,9.859
644.403,9.829
644.671,9.778
644.939,9.726
645.206,9.673
645.474,9.626
645.742,9.569
646.009,9.500
646.277,9.432
646.545,9.366
646.812,9.312
647.080,9.257
647.347,9.202
647.615,9.137
647.882,9.062
648.149,8.992
648.417,8.926
648.684,8.867
648.951,8.821
649.219,8.780
649.486,8.733
649.753,8.678
650.020,8.615
650.287,8.553
650.554,8.478
650.821,8.402
651.088,8.323
651.355,8.268
651.622,8.218
651.889,8.178
652.155,8.123
652.422,8.077
652.689,8.038
652.956,7.998
653.222,7.953
653.489,7.912
653.755,7.858
654.022,7.782
654.288,7.684
654.555,7.598
654.821,7.537
655.088,7.486
655.354,7.437
655.620,7.394
655.887,7.344
656.153,7.293
656.419,7.235
656.685,7.183
656.951,7.132
657.217,7.074
657.483,7.014
657.749,6.959
658.015,6.918
658.281,6.880
658.547,6.823
658.813,6.756
659.079,6.690
659.345,6.631
659.610,6.576
659.876,6.522
660.142,6.479
660.407,6.435
660.673,6.392
660.939,6.348
661.204,6.297
661.470,6.246
661.735,6.195
662.000,6.160
662.266,6.127
662.531,6.088
662.796,6.040
663.062,5.990
663.327,5.936
663.592,5.890
663.857,5.842
664.122,5.796
664.388,5.749
664.653,5.714
664.918,5.690
665.183,5.658
665.448,5.628
665.712,5.592
665.977,5.560
666.242,5.520
666.507,5.459
666.772,5.403
667.037,5.343
667.301,5.305
667.566,5.258
667.831,5.223
668.095,5.184
668.360,5.153
668.624,5.107
668.889,5.074
669.153,5.032
669.418,5.001
669.682,4.971
669.946,4.955
670.211,4.947
670.475,4.933
670.739,4.916
671.004,4.893
671.268,4.874
671.532,4.865
671.796,4.813
672.060,4.749
672.324,4.669
672.588,4.631
672.852,4.603
673.116,4.608
673.380,4.624
673.644,4.579
673.908,4.498
674.172,4.411
674.436,4.380
674.700,4.362
674.963,4.344
675.227,4.321
675.491,4.278
675.754,4.232
676.018,4.190
676.282,4.165
676.545,4.136
676.809,4.096
677.072,4.047
677.336,4.005
677.599,3.975
677.863,3.947
678.126,3.926
678.389,3.917
678.653,3.913
678.916,3.895
679.179,3.856
679.442,3.817
679.706,3.789
679.969,3.766
680.232,3.747
680.495,3.730
680.758,3.714
681.021,3.686
681.284,3.645
681.547,3.603
681.810,3.577
682.073,3.573
682.336,3.569
682.599,3.552
682.862,3.529
683.125,3.514
683.388,3.505
683.651,3.493
683.913,3.473
684.176,3.435
684.439,3.389
684.702,3.346
684.964,3.317
685.227,3.298
685.490,3.286
685.752,3.279
686.015,3.264
686.277,3.238
686.540,3.204
686.802,3.169
687.065,3.144
687.327,3.130
687.590,3.118
687.852,3.095
688.115,3.057
688.377,3.026
688.639,3.005
688.902,2.986
689.164,2.970
689.426,2.965
689.689,2.964
689.951,2.950
690.213,2.924
690.475,2.895
690.737,2.869
691.000,2.841
691.262,2.819
691.524,2.812
691.786,2.820
692.048,2.829
692.310,2.822
692.572,2.793
692.834,2.756
693.096,2.730
693.358,2.722
693.620,2.724
693.882,2.726
694.144,2.714
694.406,2.689
694.668,2.659
694.930,2.628
695.192,2.603
695.453,2.585
695.715,2.574
695.977,2.557
696.239,2.533
696.501,2.516
696.762,2.514
697.024,2.513
697.286,2.494
697.548,2.469
697.809,2.449
698.071,2.436
698.333,2.426
698.594,2.414
698.856,2.409
699.118,2.401
699.379,2.389
699.641,2.379
699.902,2.373
700.164,2.363
700.426,2.345
700.687,2.322
700.949,2.307
701.210,2.295
701.472,2.288
701.733,2.272
701.995,2.256
702.256,2.238
702.518,2.223
702.779,2.206
703.041,2.207
703.302,2.217
703.563,2.217
703.825,2.200
704.086,2.177
704.348,2.162
704.609,2.157
704.871,2.160
705.132,2.169
705.393,2.160
705.655,2.143
705.916,2.129
706.177,2.126
706.439,2.120
706.700,2.109
706.961,2.096
707.223,2.084
707.484,2.058
707.745,2.035
708.007,2.011
708.268,1.997
708.529,1.979
708.790,1.952
709.052,1.928
709.313,1.917
709.574,1.916
709.835,1.916
710.097,1.898
710.358,1.868
710.619,1.840
710.881,1.819
711.142,1.807
711.403,1.793
711.664,1.785
711.926,1.768
712.187,1.761
712.448,1.757
712.709,1.764
712.970,1.770
713.232,1.771
713.493,1.767
713.754,1.761
714.015,1.757
714.277,1.759
714.538,1.762
714.799,1.771
715.060,1.772
715.322,1.767
715.583,1.752
715.844,1.733
716.105,1.712
716.367,1.696
716.628,1.690
716.889,1.685
717.150,1.670
717.411,1.649
717.673,1.638
717.934,1.636
718.195,1.640
718.457,1.629
718.718,1.610
718.979,1.594
719.240,1.590
719.502,1.597
719.763,1.603
720.024,1.603
720.286,1.597
720.547,1.581
720.808,1.568
721.069,1.561
721.331,1.567
721.592,1.579
721.853,1.583
722.115,1.583
722.376,1.578
722.638,1.572
722.899,1.564
723.160,1.545
723.422,1.525
723.683,1.511
723.944,1.520
724.206,1.524
724.467,1.523
724.729,1.514
724.990,1.519
725.252,1.524
725.513,1.515
725.775,1.496
726.036,1.484
726.298,1.484
726.559,1.489
726.821,1.486
727.082,1.486
727.344,1.480
727.605,1.477
727.867,1.472
728.128,1.473
728.390,1.473
728.652,1.481
728.913,1.495
729.175,1.506
729.436,1.503
729.698,1.499
729.960,1.493
730.221,1.488
730.483,1.469
730.745,1.460
731.007,1.453
731.268,1.452
731.530,1.450
731.792,1.452
732.054,1.459
732.315,1.468
732.577,1.473
732.839,1.463
733.101,1.447
733.363,1.435
733.625,1.433
733.887,1.436
734.149,1.437
734.411,1.445
734.673,1.453
734.935,1.456
735.197,1.451
735.459,1.454
735.721,1.460
735.983,1.458
