Wavelength (nm),Intensity W14.2,,C:/Users/Brend/Desktop/LED Spectras v2/Spectrometer Data (White).sp,,,W14.2,
379.792,2.347,,2018-06-15 11:25:48,,Integration Time,229 ms,
380.000,2.344,,Analyze Light,,Number of Scans to Average,25,
380.209,2.339,,,,Smoothing,1,
380.418,2.355
380.627,2.379
380.837,2.402
381.048,2.415
381.259,2.414
381.471,2.411
381.683,2.414
381.896,2.431
382.110,2.440
382.324,2.458
382.538,2.480
382.753,2.503
382.969,2.495
383.185,2.480
383.402,2.466
383.619,2.477
383.837,2.499
384.055,2.536
384.274,2.566
384.493,2.585
384.712,2.591
384.932,2.599
385.153,2.608
385.374,2.619
385.596,2.630
385.818,2.653
386.040,2.679
386.263,2.705
386.487,2.710
386.710,2.708
386.935,2.692
387.159,2.690
387.385,2.685
387.610,2.689
387.836,2.696
388.063,2.713
388.289,2.730
388.517,2.742
388.744,2.744
388.972,2.761
389.201,2.772
389.430,2.787
389.659,2.794
389.889,2.811
390.119,2.825
390.349,2.838
390.580,2.851
390.811,2.856
391.042,2.856
391.274,2.862
391.507,2.876
391.739,2.886
391.972,2.885
392.205,2.889
392.439,2.907
392.673,2.933
392.907,2.954
393.142,2.973
393.377,2.989
393.612,3.006
393.848,3.011
394.084,3.020
394.320,3.028
394.557,3.052
394.794,3.067
395.031,3.089
395.269,3.109
395.507,3.138
395.745,3.150
395.983,3.158
396.222,3.167
396.461,3.198
396.700,3.230
396.940,3.254
397.180,3.262
397.420,3.258
397.660,3.252
397.901,3.250
398.142,3.258
398.383,3.263
398.625,3.260
398.866,3.273
399.108,3.307
399.351,3.362
399.593,3.380
399.836,3.377
400.079,3.351
400.322,3.343
400.566,3.336
400.809,3.342
401.053,3.353
401.298,3.368
401.542,3.387
401.787,3.409
402.031,3.431
402.277,3.452
402.522,3.459
402.767,3.468
403.013,3.459
403.259,3.465
403.505,3.468
403.752,3.482
403.998,3.488
404.245,3.517
404.492,3.547
404.739,3.573
404.986,3.583
405.234,3.594
405.482,3.599
405.730,3.596
405.978,3.593
406.226,3.592
406.475,3.586
406.723,3.587
406.972,3.612
407.221,3.648
407.470,3.669
407.720,3.681
407.969,3.676
408.219,3.693
408.469,3.711
408.719,3.740
408.969,3.748
409.219,3.763
409.470,3.774
409.720,3.798
409.971,3.818
410.222,3.851
410.473,3.866
410.724,3.875
410.976,3.880
411.227,3.902
411.479,3.916
411.731,3.928
411.983,3.925
412.235,3.936
412.487,3.938
412.740,3.951
412.992,3.956
413.245,3.971
413.497,3.977
413.750,3.986
414.003,3.983
414.257,3.987
414.510,3.991
414.763,4.016
415.017,4.038
415.270,4.058
415.524,4.059
415.778,4.065
416.032,4.077
416.286,4.103
416.540,4.124
416.794,4.146
417.049,4.151
417.303,4.159
417.558,4.165
417.812,4.173
418.067,4.177
418.322,4.188
418.577,4.195
418.832,4.201
419.088,4.189
419.343,4.199
419.598,4.197
419.854,4.217
420.109,4.234
420.365,4.279
420.621,4.302
420.876,4.319
421.132,4.316
421.388,4.318
421.645,4.317
421.901,4.335
422.157,4.350
422.413,4.371
422.670,4.383
422.926,4.402
423.183,4.406
423.439,4.428
423.696,4.456
423.953,4.521
424.210,4.576
424.467,4.611
424.724,4.616
424.981,4.618
425.238,4.641
425.495,4.697
425.753,4.749
426.010,4.799
426.267,4.831
426.525,4.892
426.782,4.950
427.040,5.023
427.298,5.095
427.555,5.191
427.813,5.269
428.071,5.344
428.329,5.404
428.587,5.472
428.845,5.542
429.103,5.625
429.361,5.706
429.619,5.793
429.878,5.884
430.136,6.000
430.394,6.115
430.653,6.259
430.911,6.408
431.170,6.566
431.428,6.698
431.687,6.832
431.946,6.967
432.204,7.119
432.463,7.277
432.722,7.443
432.981,7.607
433.240,7.801
433.499,8.010
433.758,8.239
434.017,8.438
434.276,8.639
434.535,8.830
434.794,9.044
435.053,9.277
435.312,9.539
435.572,9.813
435.831,10.097
436.090,10.395
436.350,10.712
436.609,11.028
436.869,11.342
437.128,11.657
437.388,11.990
437.647,12.343
437.907,12.714
438.166,13.083
438.426,13.457
438.686,13.854
438.946,14.278
439.205,14.725
439.465,15.188
439.725,15.678
439.985,16.182
440.245,16.673
440.505,17.176
440.765,17.677
441.025,18.200
441.285,18.727
441.545,19.272
441.805,19.834
442.065,20.404
442.325,20.989
442.585,21.611
442.846,22.260
443.106,22.969
443.366,23.692
443.626,24.451
443.887,25.205
444.147,25.987
444.407,26.788
444.668,27.643
444.928,28.531
445.189,29.488
445.449,30.475
445.710,31.508
445.970,32.573
446.231,33.697
446.491,34.876
446.752,36.090
447.012,37.349
447.273,38.687
447.534,40.091
447.794,41.544
448.055,43.038
448.316,44.619
448.577,46.291
448.837,48.043
449.098,49.864
449.359,51.741
449.620,53.643
449.881,55.574
450.142,57.541
450.403,59.584
450.664,61.704
450.924,63.890
451.185,66.102
451.446,68.330
451.707,70.554
451.969,72.803
452.230,75.008
452.491,77.187
452.752,79.292
453.013,81.315
453.274,83.166
453.535,84.765
453.796,86.072
454.058,87.144
454.319,88.042
454.580,88.837
454.841,89.522
455.103,90.115
455.364,90.605
455.625,91.023
455.887,91.367
456.148,91.640
456.409,91.833
456.671,91.954
456.932,92.013
457.194,92.015
457.455,91.957
457.716,91.846
457.978,91.686
458.239,91.474
458.501,91.206
458.763,90.861
459.024,90.453
459.286,89.976
459.547,89.431
459.809,88.800
460.071,88.078
460.332,87.286
460.594,86.382
460.856,85.333
461.117,84.094
461.379,82.705
461.641,81.196
461.903,79.618
462.164,78.012
462.426,76.417
462.688,74.854
462.950,73.346
463.212,71.890
463.474,70.464
463.736,69.061
463.998,67.735
464.260,66.511
464.522,65.391
464.784,64.322
465.046,63.312
465.308,62.373
465.570,61.498
465.832,60.687
466.094,59.909
466.356,59.186
466.618,58.479
466.880,57.781
467.142,57.091
467.405,56.445
467.667,55.877
467.929,55.352
468.191,54.842
468.454,54.320
468.716,53.797
468.978,53.251
469.241,52.683
469.503,52.116
469.765,51.580
470.028,51.056
470.290,50.509
470.552,49.949
470.815,49.396
471.077,48.839
471.340,48.283
471.602,47.711
471.865,47.134
472.128,46.530
472.390,45.910
472.653,45.279
472.915,44.633
473.178,43.967
473.441,43.289
473.703,42.588
473.966,41.891
474.229,41.183
474.492,40.483
474.755,39.755
475.017,39.056
475.280,38.376
475.543,37.719
475.806,37.038
476.069,36.343
476.332,35.652
476.595,34.972
476.858,34.301
477.121,33.642
477.384,33.007
477.647,32.416
477.910,31.849
478.173,31.307
478.436,30.768
478.699,30.264
478.962,29.771
479.226,29.320
479.489,28.880
479.752,28.462
480.015,28.041
480.279,27.640
480.542,27.257
480.805,26.896
481.069,26.538
481.332,26.210
481.595,25.911
481.859,25.670
482.122,25.430
482.386,25.178
482.649,24.899
482.913,24.632
483.177,24.386
483.440,24.159
483.704,23.953
483.967,23.787
484.231,23.642
484.495,23.503
484.759,23.348
485.022,23.188
485.286,23.025
485.550,22.864
485.814,22.680
486.078,22.513
486.342,22.366
486.606,22.260
486.869,22.157
487.133,22.068
487.397,21.983
487.662,21.896
487.926,21.779
488.190,21.658
488.454,21.520
488.718,21.391
488.982,21.255
489.246,21.149
489.511,21.050
489.775,20.965
490.039,20.872
490.304,20.779
490.568,20.677
490.832,20.590
491.097,20.519
491.361,20.459
491.626,20.391
491.890,20.324
492.155,20.254
492.419,20.206
492.684,20.151
492.949,20.114
493.213,20.088
493.478,20.095
493.743,20.095
494.008,20.079
494.272,20.065
494.537,20.088
494.802,20.139
495.067,20.202
495.332,20.255
495.597,20.309
495.862,20.349
496.127,20.404
496.392,20.459
496.657,20.527
496.922,20.596
497.187,20.692
497.452,20.799
497.718,20.930
497.983,21.042
498.248,21.148
498.513,21.232
498.779,21.339
499.044,21.457
499.310,21.571
499.575,21.672
499.841,21.788
500.106,21.921
500.372,22.058
500.637,22.197
500.903,22.359
501.168,22.519
501.434,22.663
501.700,22.772
501.966,22.898
502.231,23.033
502.497,23.187
502.763,23.320
503.029,23.457
503.295,23.593
503.561,23.750
503.827,23.906
504.093,24.070
504.359,24.223
504.625,24.393
504.891,24.557
505.157,24.733
505.423,24.884
505.690,25.032
505.956,25.173
506.222,25.333
506.489,25.509
506.755,25.698
507.021,25.868
507.288,26.030
507.554,26.166
507.821,26.312
508.087,26.469
508.354,26.659
508.621,26.827
508.887,26.971
509.154,27.102
509.421,27.257
509.687,27.411
509.954,27.559
510.221,27.698
510.488,27.875
510.755,28.059
511.022,28.239
511.289,28.379
511.556,28.508
511.823,28.621
512.090,28.756
512.357,28.882
512.624,29.026
512.891,29.156
513.159,29.288
513.426,29.412
513.693,29.548
513.960,29.695
514.228,29.852
514.495,29.997
514.763,30.135
515.030,30.255
515.298,30.370
515.565,30.493
515.833,30.637
516.100,30.768
516.368,30.874
516.636,30.953
516.904,31.061
517.171,31.173
517.439,31.310
517.707,31.434
517.975,31.581
518.243,31.717
518.511,31.843
518.779,31.936
519.047,32.050
519.315,32.160
519.583,32.255
519.851,32.322
520.119,32.397
520.387,32.490
520.656,32.594
520.924,32.704
521.192,32.813
521.461,32.909
521.729,33.004
521.997,33.091
522.266,33.186
522.534,33.279
522.803,33.376
523.071,33.464
523.340,33.546
523.609,33.612
523.877,33.687
524.146,33.761
524.415,33.854
524.684,33.946
524.952,34.035
525.221,34.119
525.490,34.227
525.759,34.331
526.028,34.426
526.297,34.464
526.566,34.508
526.835,34.558
527.104,34.633
527.373,34.705
527.642,34.769
527.912,34.813
528.181,34.862
528.450,34.927
528.719,35.014
528.989,35.097
529.258,35.170
529.528,35.216
529.797,35.248
530.067,35.285
530.336,35.333
530.606,35.364
530.875,35.375
531.145,35.376
531.414,35.399
531.684,35.434
531.954,35.469
532.224,35.490
532.493,35.499
532.763,35.514
533.033,35.552
533.303,35.599
533.573,35.643
533.843,35.656
534.113,35.672
534.383,35.674
534.653,35.697
534.923,35.726
535.193,35.770
535.463,35.819
535.733,35.862
536.004,35.898
536.274,35.930
536.544,35.954
536.814,35.985
537.085,36.024
537.355,36.083
537.626,36.146
537.896,36.195
538.166,36.221
538.437,36.244
538.707,36.266
538.978,36.312
539.249,36.371
539.519,36.438
539.790,36.483
540.061,36.520
540.331,36.555
540.602,36.594
540.873,36.620
541.144,36.632
541.414,36.641
541.685,36.670
541.956,36.705
542.227,36.754
542.498,36.793
542.769,36.852
543.040,36.913
543.311,36.982
543.582,37.034
543.853,37.069
544.124,37.098
544.396,37.134
544.667,37.168
544.938,37.195
545.209,37.165
545.480,37.128
545.752,37.079
546.023,37.082
546.294,37.062
546.566,37.035
546.837,36.980
547.109,36.957
547.380,36.947
547.652,36.954
547.923,36.959
548.195,36.977
548.466,37.003
548.738,37.028
549.009,37.015
549.281,36.981
549.553,36.926
549.824,36.874
550.096,36.840
550.368,36.831
550.640,36.838
550.911,36.861
551.183,36.903
551.455,36.951
551.727,36.956
551.999,36.920
552.271,36.861
552.543,36.838
552.815,36.827
553.087,36.852
553.359,36.863
553.631,36.855
553.903,36.807
554.175,36.755
554.447,36.719
554.719,36.694
554.991,36.656
555.263,36.613
555.535,36.574
555.808,36.556
556.080,36.539
556.352,36.520
556.624,36.482
556.897,36.424
557.169,36.353
557.441,36.287
557.714,36.220
557.986,36.162
558.258,36.096
558.531,36.075
558.803,36.065
559.076,36.063
559.348,36.025
559.621,35.966
559.893,35.908
560.166,35.855
560.438,35.796
560.711,35.745
560.983,35.715
561.256,35.719
561.528,35.720
561.801,35.706
562.074,35.679
562.346,35.655
562.619,35.618
562.892,35.569
563.164,35.512
563.437,35.484
563.710,35.461
563.983,35.433
564.255,35.389
564.528,35.369
564.801,35.368
565.074,35.375
565.346,35.346
565.619,35.306
565.892,35.249
566.165,35.183
566.438,35.091
566.711,35.006
566.984,34.933
567.257,34.875
567.529,34.818
567.802,34.783
568.075,34.741
568.348,34.693
568.621,34.636
568.894,34.575
569.167,34.513
569.440,34.439
569.713,34.339
569.986,34.236
570.259,34.104
570.532,34.009
570.805,33.916
571.078,33.858
571.351,33.800
571.625,33.761
571.898,33.703
572.171,33.637
572.444,33.553
572.717,33.481
572.990,33.404
573.263,33.302
573.536,33.158
573.809,33.004
574.083,32.875
574.356,32.801
574.629,32.770
574.902,32.744
575.175,32.699
575.448,32.623
575.721,32.532
575.995,32.447
576.268,32.365
576.541,32.313
576.814,32.270
577.087,32.227
577.361,32.164
577.634,32.102
577.907,32.028
578.180,31.947
578.453,31.849
578.727,31.764
579.000,31.674
579.273,31.603
579.546,31.553
579.820,31.536
580.093,31.502
580.366,31.448
580.639,31.374
580.913,31.311
581.186,31.252
581.459,31.192
581.732,31.109
582.005,31.016
582.279,30.902
582.552,30.790
582.825,30.680
583.098,30.588
583.372,30.508
583.645,30.457
583.918,30.440
584.191,30.446
584.464,30.427
584.738,30.387
585.011,30.314
585.284,30.226
585.557,30.103
585.831,29.980
586.104,29.860
586.377,29.786
586.650,29.726
586.923,29.671
587.196,29.604
587.470,29.535
587.743,29.478
588.016,29.430
588.289,29.383
588.562,29.326
588.835,29.234
589.109,29.113
589.382,28.991
589.655,28.891
589.928,28.825
590.201,28.763
590.474,28.722
590.747,28.697
591.020,28.676
591.293,28.628
591.567,28.552
591.840,28.453
592.113,28.324
592.386,28.166
592.659,28.006
592.932,27.879
593.205,27.786
593.478,27.716
593.751,27.647
594.024,27.587
594.297,27.521
594.570,27.456
594.843,27.396
595.116,27.329
595.389,27.243
595.662,27.126
595.934,27.000
596.207,26.887
596.480,26.778
596.753,26.680
597.026,26.585
597.299,26.503
597.572,26.423
597.844,26.332
598.117,26.212
598.390,26.073
598.663,25.922
598.936,25.786
599.208,25.654
599.481,25.541
599.754,25.439
600.026,25.340
600.299,25.238
600.572,25.143
600.844,25.047
601.117,24.935
601.390,24.812
601.662,24.693
601.935,24.563
602.207,24.428
602.480,24.282
602.752,24.151
603.025,24.008
603.297,23.884
603.570,23.784
603.842,23.726
604.115,23.645
604.387,23.550
604.660,23.404
604.932,23.265
605.204,23.122
605.477,23.008
605.749,22.899
606.021,22.798
606.294,22.688
606.566,22.559
606.838,22.440
607.110,22.339
607.383,22.267
607.655,22.198
607.927,22.134
608.199,22.076
608.471,21.995
608.743,21.890
609.015,21.759
609.287,21.626
609.559,21.484
609.831,21.346
610.103,21.209
610.375,21.088
610.647,20.947
610.919,20.801
611.191,20.647
611.463,20.519
611.735,20.378
612.007,20.232
612.278,20.075
612.550,19.935
612.822,19.806
613.094,19.686
613.365,19.553
613.637,19.427
613.909,19.285
614.180,19.152
614.452,19.004
614.723,18.861
614.995,18.714
615.266,18.591
615.538,18.494
615.809,18.416
616.081,18.314
616.352,18.191
616.623,18.056
616.895,17.932
617.166,17.794
617.437,17.658
617.709,17.521
617.980,17.415
618.251,17.325
618.522,17.248
618.793,17.182
619.065,17.143
619.336,17.072
619.607,16.979
619.878,16.866
620.149,16.785
620.420,16.680
620.691,16.549
620.962,16.403
621.232,16.296
621.503,16.182
621.774,16.084
622.045,15.991
622.316,15.943
622.586,15.893
622.857,15.840
623.128,15.749
623.398,15.643
623.669,15.526
623.940,15.418
624.210,15.298
624.481,15.203
624.751,15.103
625.021,15.018
625.292,14.927
625.562,14.866
625.833,14.811
626.103,14.755
626.373,14.678
626.643,14.613
626.914,14.533
627.184,14.456
627.454,14.365
627.724,14.284
627.994,14.203
628.264,14.118
628.534,14.018
628.804,13.923
629.074,13.846
629.344,13.779
629.614,13.714
629.884,13.643
630.154,13.575
630.424,13.509
630.693,13.444
630.963,13.378
631.233,13.300
631.502,13.227
631.772,13.157
632.041,13.084
632.311,12.990
632.581,12.890
632.850,12.790
633.119,12.692
633.389,12.596
633.658,12.521
633.928,12.476
634.197,12.452
634.466,12.434
634.735,12.403
635.004,12.340
635.274,12.263
635.543,12.180
635.812,12.116
636.081,12.060
636.350,12.014
636.619,11.953
636.888,11.877
637.157,11.795
637.426,11.726
637.694,11.661
637.963,11.597
638.232,11.533
638.501,11.470
638.769,11.418
639.038,11.365
639.307,11.323
639.575,11.269
639.844,11.196
640.112,11.108
640.381,11.011
640.649,10.929
640.917,10.862
641.186,10.808
641.454,10.761
641.722,10.709
641.991,10.653
642.259,10.581
642.527,10.505
642.795,10.436
643.063,10.362
643.331,10.298
643.599,10.245
643.867,10.225
644.135,10.200
644.403,10.169
644.671,10.112
644.939,10.058
645.206,9.999
645.474,9.948
645.742,9.884
646.009,9.811
646.277,9.747
646.545,9.692
646.812,9.656
647.080,9.625
647.347,9.586
647.615,9.529
647.882,9.446
648.149,9.355
648.417,9.264
648.684,9.195
648.951,9.148
649.219,9.115
649.486,9.070
649.753,9.015
650.020,8.951
650.287,8.887
650.554,8.811
650.821,8.734
651.088,8.653
651.355,8.599
651.622,8.547
651.889,8.507
652.155,8.452
652.422,8.404
652.689,8.364
652.956,8.325
653.222,8.286
653.489,8.248
653.755,8.196
654.022,8.122
654.288,8.023
654.555,7.939
654.821,7.877
655.088,7.829
655.354,7.784
655.620,7.742
655.887,7.688
656.153,7.629
656.419,7.568
656.685,7.515
656.951,7.461
657.217,7.404
657.483,7.350
657.749,7.299
658.015,7.250
658.281,7.198
658.547,7.141
658.813,7.081
659.079,7.011
659.345,6.943
659.610,6.877
659.876,6.821
660.142,6.769
660.407,6.722
660.673,6.685
660.939,6.654
661.204,6.609
661.470,6.559
661.735,6.516
662.000,6.491
662.266,6.461
662.531,6.413
662.796,6.355
663.062,6.289
663.327,6.222
663.592,6.167
663.857,6.123
664.122,6.087
664.388,6.043
664.653,6.006
664.918,5.977
665.183,5.948
665.448,5.920
665.712,5.888
665.977,5.855
666.242,5.813
666.507,5.739
666.772,5.670
667.037,5.601
667.301,5.567
667.566,5.524
667.831,5.492
668.095,5.455
668.360,5.427
668.624,5.377
668.889,5.339
669.153,5.298
669.418,5.275
669.682,5.249
669.946,5.231
670.211,5.222
670.475,5.207
670.739,5.191
671.004,5.173
671.268,5.168
671.532,5.166
671.796,5.101
672.060,5.023
672.324,4.938
672.588,4.915
672.852,4.901
673.116,4.920
673.380,4.940
673.644,4.889
673.908,4.795
674.172,4.699
674.436,4.667
674.700,4.639
674.963,4.606
675.227,4.568
675.491,4.522
675.754,4.478
676.018,4.439
676.282,4.414
676.545,4.383
676.809,4.340
677.072,4.290
677.336,4.246
677.599,4.221
677.863,4.194
678.126,4.170
678.389,4.154
678.653,4.147
678.916,4.131
679.179,4.086
679.442,4.042
679.706,4.010
679.969,3.990
680.232,3.968
680.495,3.953
680.758,3.940
681.021,3.917
681.284,3.875
681.547,3.832
681.810,3.807
682.073,3.804
682.336,3.800
682.599,3.784
682.862,3.757
683.125,3.738
683.388,3.726
683.651,3.711
683.913,3.692
684.176,3.651
684.439,3.604
684.702,3.551
684.964,3.512
685.227,3.486
685.490,3.477
685.752,3.484
686.015,3.470
686.277,3.438
686.540,3.391
686.802,3.350
687.065,3.328
687.327,3.316
687.590,3.308
687.852,3.289
688.115,3.256
688.377,3.230
688.639,3.209
688.902,3.192
689.164,3.178
689.426,3.173
689.689,3.171
689.951,3.151
690.213,3.124
690.475,3.099
690.737,3.075
691.000,3.046
691.262,3.018
691.524,3.007
691.786,3.011
692.048,3.015
692.310,2.998
692.572,2.955
692.834,2.911
693.096,2.890
693.358,2.894
693.620,2.907
693.882,2.910
694.144,2.897
694.406,2.865
694.668,2.834
694.930,2.802
695.192,2.775
695.453,2.752
695.715,2.736
695.977,2.719
696.239,2.694
696.501,2.676
696.762,2.675
697.024,2.678
697.286,2.662
697.548,2.638
697.809,2.618
698.071,2.604
698.333,2.589
698.594,2.574
698.856,2.567
699.118,2.559
699.379,2.547
699.641,2.537
699.902,2.529
700.164,2.517
700.426,2.496
700.687,2.471
700.949,2.457
701.210,2.446
701.472,2.433
701.733,2.410
701.995,2.395
702.256,2.381
702.518,2.367
702.779,2.351
703.041,2.356
703.302,2.374
703.563,2.374
703.825,2.352
704.086,2.324
704.348,2.307
704.609,2.299
704.871,2.302
705.132,2.313
705.393,2.305
705.655,2.288
705.916,2.273
706.177,2.267
706.439,2.261
706.700,2.249
706.961,2.239
707.223,2.231
707.484,2.203
707.745,2.176
708.007,2.147
708.268,2.125
708.529,2.102
708.790,2.069
709.052,2.043
709.313,2.032
709.574,2.030
709.835,2.027
710.097,2.008
710.358,1.972
710.619,1.937
710.881,1.905
711.142,1.890
711.403,1.876
711.664,1.869
711.926,1.856
712.187,1.857
712.448,1.860
712.709,1.871
712.970,1.876
713.232,1.874
713.493,1.867
713.754,1.855
714.015,1.848
714.277,1.855
714.538,1.868
714.799,1.884
715.060,1.884
715.322,1.874
715.583,1.855
715.844,1.836
716.105,1.816
716.367,1.798
716.628,1.790
716.889,1.784
717.150,1.766
717.411,1.738
717.673,1.721
717.934,1.715
718.195,1.716
718.457,1.702
718.718,1.679
718.979,1.664
719.240,1.667
719.502,1.682
719.763,1.696
720.024,1.704
720.286,1.701
720.547,1.683
720.808,1.663
721.069,1.651
721.331,1.653
721.592,1.663
721.853,1.666
722.115,1.669
722.376,1.670
722.638,1.670
722.899,1.664
723.160,1.646
723.422,1.629
723.683,1.619
723.944,1.622
724.206,1.625
724.467,1.623
724.729,1.615
724.990,1.622
725.252,1.631
725.513,1.626
725.775,1.605
726.036,1.588
726.298,1.583
726.559,1.592
726.821,1.590
727.082,1.584
727.344,1.575
727.605,1.574
727.867,1.571
728.128,1.576
728.390,1.576
728.652,1.588
728.913,1.607
729.175,1.621
729.436,1.621
729.698,1.616
729.960,1.609
730.221,1.596
730.483,1.566
730.745,1.553
731.007,1.552
731.268,1.560
731.530,1.563
731.792,1.565
732.054,1.573
732.315,1.580
732.577,1.584
732.839,1.574
733.101,1.558
733.363,1.543
733.625,1.535
733.887,1.537
734.149,1.541
734.411,1.554
734.673,1.562
734.935,1.566
735.197,1.558
735.459,1.561
735.721,1.564
735.983,1.561
