Wavelength (nm),Intensity W21.1,,C:/Users/Brend/Desktop/LED Spectras v2/Spectrometer Data (White).sp,,,W21.1,
379.792,2.367,,2018-06-15 13:18:02,,Integration Time,212 ms,
380.000,2.362,,Analyze Light,,Number of Scans to Average,25,
380.209,2.354,,,,Smoothing,1,
380.418,2.366
380.627,2.387
380.837,2.409
381.048,2.421
381.259,2.425
381.471,2.425
381.683,2.434
381.896,2.451
382.110,2.461
382.324,2.477
382.538,2.499
382.753,2.523
382.969,2.516
383.185,2.503
383.402,2.490
383.619,2.503
383.837,2.523
384.055,2.555
384.274,2.578
384.493,2.590
384.712,2.592
384.932,2.597
385.153,2.604
385.374,2.619
385.596,2.636
385.818,2.668
386.040,2.693
386.263,2.717
386.487,2.725
386.710,2.727
386.935,2.714
387.159,2.706
387.385,2.695
387.610,2.695
387.836,2.697
388.063,2.712
388.289,2.728
388.517,2.736
388.744,2.734
388.972,2.745
389.201,2.759
389.430,2.783
389.659,2.800
389.889,2.823
390.119,2.836
390.349,2.846
390.580,2.858
390.811,2.870
391.042,2.877
391.274,2.884
391.507,2.894
391.739,2.900
391.972,2.894
392.205,2.896
392.439,2.910
392.673,2.933
392.907,2.952
393.142,2.970
393.377,2.985
393.612,3.005
393.848,3.017
394.084,3.030
394.320,3.032
394.557,3.049
394.794,3.061
395.031,3.088
395.269,3.109
395.507,3.139
395.745,3.149
395.983,3.157
396.222,3.162
396.461,3.189
396.700,3.218
396.940,3.240
397.180,3.245
397.420,3.238
397.660,3.230
397.901,3.223
398.142,3.228
398.383,3.230
398.625,3.229
398.866,3.242
399.108,3.281
399.351,3.343
399.593,3.369
399.836,3.373
400.079,3.354
400.322,3.347
400.566,3.339
400.809,3.340
401.053,3.346
401.298,3.359
401.542,3.375
401.787,3.402
402.031,3.420
402.277,3.440
402.522,3.445
402.767,3.460
403.013,3.457
403.259,3.469
403.505,3.471
403.752,3.482
403.998,3.483
404.245,3.507
404.492,3.532
404.739,3.554
404.986,3.561
405.234,3.570
405.482,3.579
405.730,3.586
405.978,3.592
406.226,3.599
406.475,3.595
406.723,3.598
406.972,3.613
407.221,3.644
407.470,3.661
407.720,3.678
407.969,3.674
408.219,3.694
408.469,3.709
408.719,3.730
408.969,3.734
409.219,3.746
409.470,3.757
409.720,3.780
409.971,3.796
410.222,3.822
410.473,3.828
410.724,3.831
410.976,3.839
411.227,3.871
411.479,3.896
411.731,3.917
411.983,3.915
412.235,3.920
412.487,3.916
412.740,3.930
412.992,3.940
413.245,3.957
413.497,3.958
413.750,3.964
414.003,3.959
414.257,3.962
414.510,3.963
414.763,3.989
415.017,4.012
415.270,4.037
415.524,4.040
415.778,4.041
416.032,4.038
416.286,4.054
416.540,4.070
416.794,4.099
417.049,4.114
417.303,4.137
417.558,4.154
417.812,4.170
418.067,4.179
418.322,4.194
418.577,4.199
418.832,4.203
419.088,4.189
419.343,4.198
419.598,4.197
419.854,4.213
420.109,4.223
420.365,4.255
420.621,4.273
420.876,4.294
421.132,4.307
421.388,4.322
421.645,4.331
421.901,4.350
422.157,4.369
422.413,4.392
422.670,4.401
422.926,4.417
423.183,4.419
423.439,4.445
423.696,4.472
423.953,4.538
424.210,4.595
424.467,4.631
424.724,4.635
424.981,4.635
425.238,4.652
425.495,4.700
425.753,4.747
426.010,4.795
426.267,4.826
426.525,4.879
426.782,4.928
427.040,4.984
427.298,5.039
427.555,5.120
427.813,5.194
428.071,5.271
428.329,5.332
428.587,5.399
428.845,5.463
429.103,5.541
429.361,5.621
429.619,5.705
429.878,5.791
430.136,5.899
430.394,6.004
430.653,6.136
430.911,6.267
431.170,6.414
431.428,6.533
431.687,6.659
431.946,6.780
432.204,6.920
432.463,7.067
432.722,7.218
432.981,7.371
433.240,7.550
433.499,7.744
433.758,7.957
434.017,8.145
434.276,8.335
434.535,8.521
434.794,8.728
435.053,8.949
435.312,9.197
435.572,9.442
435.831,9.700
436.090,9.966
436.350,10.255
436.609,10.559
436.869,10.872
437.128,11.184
437.388,11.498
437.647,11.819
437.907,12.170
438.166,12.530
438.426,12.897
438.686,13.261
438.946,13.649
439.205,14.056
439.465,14.499
439.725,14.968
439.985,15.457
440.245,15.928
440.505,16.399
440.765,16.875
441.025,17.368
441.285,17.875
441.545,18.399
441.805,18.936
442.065,19.489
442.325,20.056
442.585,20.658
442.846,21.288
443.106,21.954
443.366,22.645
443.626,23.356
443.887,24.093
444.147,24.854
444.407,25.640
444.668,26.441
444.928,27.274
445.189,28.152
445.449,29.076
445.710,30.041
445.970,31.047
446.231,32.109
446.491,33.225
446.752,34.391
447.012,35.584
447.273,36.834
447.534,38.126
447.794,39.466
448.055,40.850
448.316,42.311
448.577,43.859
448.837,45.474
449.098,47.149
449.359,48.865
449.620,50.607
449.881,52.387
450.142,54.225
450.403,56.161
450.664,58.181
450.924,60.264
451.185,62.375
451.446,64.507
451.707,66.641
451.969,68.781
452.230,70.919
452.491,73.046
452.752,75.126
453.013,77.150
453.274,79.108
453.535,80.976
453.796,82.668
454.058,84.144
454.319,85.384
454.580,86.439
454.841,87.338
455.103,88.133
455.364,88.817
455.625,89.427
455.887,89.965
456.148,90.442
456.409,90.837
456.671,91.150
456.932,91.381
457.194,91.538
457.455,91.634
457.716,91.676
457.978,91.679
458.239,91.627
458.501,91.539
458.763,91.408
459.024,91.237
459.286,91.014
459.547,90.742
459.809,90.397
460.071,89.985
460.332,89.508
460.594,88.974
460.856,88.386
461.117,87.734
461.379,87.024
461.641,86.237
461.903,85.336
462.164,84.307
462.426,83.125
462.688,81.810
462.950,80.388
463.212,78.910
463.474,77.391
463.736,75.856
463.998,74.377
464.260,72.987
464.522,71.687
464.784,70.416
465.046,69.193
465.308,68.040
465.570,66.963
465.832,65.946
466.094,64.979
466.356,64.049
466.618,63.138
466.880,62.241
467.142,61.385
467.405,60.589
467.667,59.864
467.929,59.177
468.191,58.526
468.454,57.869
468.716,57.221
468.978,56.558
469.241,55.899
469.503,55.269
469.765,54.670
470.028,54.116
470.290,53.567
470.552,53.022
470.815,52.482
471.077,51.949
471.340,51.418
471.602,50.877
471.865,50.321
472.128,49.740
472.390,49.164
472.653,48.590
472.915,48.029
473.178,47.453
473.441,46.849
473.703,46.224
473.966,45.575
474.229,44.921
474.492,44.272
474.755,43.590
475.017,42.921
475.280,42.236
475.543,41.578
475.806,40.881
476.069,40.183
476.332,39.485
476.595,38.800
476.858,38.107
477.121,37.395
477.384,36.701
477.647,36.035
477.910,35.416
478.173,34.820
478.436,34.231
478.699,33.655
478.962,33.085
479.226,32.555
479.489,32.032
479.752,31.534
480.015,31.031
480.279,30.552
480.542,30.081
480.805,29.621
481.069,29.175
481.332,28.765
481.595,28.397
481.859,28.065
482.122,27.735
482.386,27.408
482.649,27.076
482.913,26.758
483.177,26.445
483.440,26.148
483.704,25.878
483.967,25.668
484.231,25.490
484.495,25.327
484.759,25.143
485.022,24.939
485.286,24.723
485.550,24.512
485.814,24.297
486.078,24.098
486.342,23.921
486.606,23.792
486.869,23.673
487.133,23.565
487.397,23.451
487.662,23.329
487.926,23.177
488.190,23.024
488.454,22.881
488.718,22.765
488.982,22.641
489.246,22.536
489.511,22.418
489.775,22.305
490.039,22.183
490.304,22.071
490.568,21.951
490.832,21.843
491.097,21.760
491.361,21.710
491.626,21.652
491.890,21.588
492.155,21.514
492.419,21.459
492.684,21.396
492.949,21.337
493.213,21.275
493.478,21.233
493.743,21.195
494.008,21.151
494.272,21.121
494.537,21.117
494.802,21.129
495.067,21.144
495.332,21.155
495.597,21.186
495.862,21.204
496.127,21.240
496.392,21.258
496.657,21.279
496.922,21.298
497.187,21.355
497.452,21.445
497.718,21.577
497.983,21.693
498.248,21.805
498.513,21.883
498.779,21.983
499.044,22.075
499.310,22.151
499.575,22.196
499.841,22.268
500.106,22.372
500.372,22.501
500.637,22.637
500.903,22.795
501.168,22.943
501.434,23.074
501.700,23.182
501.966,23.305
502.231,23.433
502.497,23.576
502.763,23.706
503.029,23.834
503.295,23.961
503.561,24.090
503.827,24.219
504.093,24.350
504.359,24.475
504.625,24.616
504.891,24.743
505.157,24.893
505.423,25.030
505.690,25.167
505.956,25.299
506.222,25.445
506.489,25.608
506.755,25.776
507.021,25.933
507.288,26.089
507.554,26.225
507.821,26.371
508.087,26.509
508.354,26.674
508.621,26.826
508.887,26.978
509.154,27.120
509.421,27.264
509.687,27.389
509.954,27.519
510.221,27.661
510.488,27.846
510.755,28.033
511.022,28.213
511.289,28.348
511.556,28.471
511.823,28.577
512.090,28.705
512.357,28.821
512.624,28.952
512.891,29.069
513.159,29.185
513.426,29.294
513.693,29.420
513.960,29.547
514.228,29.677
514.495,29.803
514.763,29.934
515.030,30.059
515.298,30.179
515.565,30.301
515.833,30.423
516.100,30.521
516.368,30.611
516.636,30.672
516.904,30.759
517.171,30.846
517.439,30.973
517.707,31.091
517.975,31.216
518.243,31.326
518.511,31.432
518.779,31.516
519.047,31.620
519.315,31.713
519.583,31.807
519.851,31.877
520.119,31.962
520.387,32.066
520.656,32.182
520.924,32.294
521.192,32.400
521.461,32.492
521.729,32.585
521.997,32.661
522.266,32.736
522.534,32.796
522.803,32.864
523.071,32.928
523.340,32.995
523.609,33.065
523.877,33.152
524.146,33.251
524.415,33.367
524.684,33.472
524.952,33.548
525.221,33.602
525.490,33.666
525.759,33.739
526.028,33.807
526.297,33.852
526.566,33.911
526.835,33.979
527.104,34.071
527.373,34.154
527.642,34.230
527.912,34.277
528.181,34.329
528.450,34.376
528.719,34.433
528.989,34.483
529.258,34.529
529.528,34.556
529.797,34.570
530.067,34.599
530.336,34.637
530.606,34.678
530.875,34.697
531.145,34.725
531.414,34.761
531.684,34.809
531.954,34.842
532.224,34.867
532.493,34.880
532.763,34.904
533.033,34.941
533.303,34.984
533.573,35.021
533.843,35.025
534.113,35.024
534.383,35.018
534.653,35.048
534.923,35.093
535.193,35.151
535.463,35.196
535.733,35.226
536.004,35.234
536.274,35.235
536.544,35.233
536.814,35.249
537.085,35.286
537.355,35.360
537.626,35.446
537.896,35.513
538.166,35.542
538.437,35.560
538.707,35.587
538.978,35.650
539.249,35.735
539.519,35.825
539.790,35.883
540.061,35.927
540.331,35.959
540.602,35.998
540.873,36.015
541.144,36.036
541.414,36.049
541.685,36.071
541.956,36.089
542.227,36.118
542.498,36.144
542.769,36.179
543.040,36.226
543.311,36.299
543.582,36.389
543.853,36.465
544.124,36.512
544.396,36.543
544.667,36.575
544.938,36.602
545.209,36.576
545.480,36.544
545.752,36.494
546.023,36.475
546.294,36.427
546.566,36.387
546.837,36.347
547.109,36.334
547.380,36.329
547.652,36.320
547.923,36.311
548.195,36.316
548.466,36.328
548.738,36.330
549.009,36.298
549.281,36.247
549.553,36.201
549.824,36.171
550.096,36.164
550.368,36.180
550.640,36.199
550.911,36.207
551.183,36.205
551.455,36.208
551.727,36.205
551.999,36.183
552.271,36.144
552.543,36.131
552.815,36.126
553.087,36.144
553.359,36.154
553.631,36.152
553.903,36.123
554.175,36.077
554.447,36.022
554.719,35.966
554.991,35.905
555.263,35.846
555.535,35.790
555.808,35.756
556.080,35.735
556.352,35.718
556.624,35.679
556.897,35.615
557.169,35.539
557.441,35.462
557.714,35.382
557.986,35.329
558.258,35.282
558.531,35.275
558.803,35.261
559.076,35.252
559.348,35.218
559.621,35.171
559.893,35.117
560.166,35.074
560.438,35.046
560.711,35.035
560.983,35.041
561.256,35.058
561.528,35.069
561.801,35.063
562.074,35.041
562.346,35.012
562.619,34.971
562.892,34.918
563.164,34.855
563.437,34.811
563.710,34.775
563.983,34.737
564.255,34.686
564.528,34.677
564.801,34.693
565.074,34.725
565.346,34.710
565.619,34.682
565.892,34.627
566.165,34.566
566.438,34.474
566.711,34.386
566.984,34.317
567.257,34.273
567.529,34.239
567.802,34.222
568.075,34.208
568.348,34.175
568.621,34.120
568.894,34.042
569.167,33.956
569.440,33.857
569.713,33.745
569.986,33.635
570.259,33.511
570.532,33.411
570.805,33.323
571.078,33.251
571.351,33.178
571.625,33.126
571.898,33.063
572.171,32.986
572.444,32.887
572.717,32.794
572.990,32.699
573.263,32.579
573.536,32.434
573.809,32.304
574.083,32.221
574.356,32.191
574.629,32.186
574.902,32.165
575.175,32.108
575.448,32.013
575.721,31.896
575.995,31.802
576.268,31.724
576.541,31.684
576.814,31.647
577.087,31.615
577.361,31.562
577.634,31.509
577.907,31.428
578.180,31.346
578.453,31.255
578.727,31.180
579.000,31.098
579.273,31.011
579.546,30.925
579.820,30.859
580.093,30.805
580.366,30.759
580.639,30.699
580.913,30.639
581.186,30.561
581.459,30.481
581.732,30.378
582.005,30.279
582.279,30.167
582.552,30.065
582.825,29.973
583.098,29.900
583.372,29.850
583.645,29.813
583.918,29.792
584.191,29.786
584.464,29.771
584.738,29.746
585.011,29.681
585.284,29.594
585.557,29.468
585.831,29.351
586.104,29.251
586.377,29.201
586.650,29.162
586.923,29.130
587.196,29.079
587.470,29.019
587.743,28.953
588.016,28.889
588.289,28.817
588.562,28.741
588.835,28.643
589.109,28.534
589.382,28.421
589.655,28.334
589.928,28.270
590.201,28.219
590.474,28.186
590.747,28.161
591.020,28.126
591.293,28.063
591.567,27.968
591.840,27.855
592.113,27.733
592.386,27.602
592.659,27.473
592.932,27.364
593.205,27.283
593.478,27.227
593.751,27.168
594.024,27.121
594.297,27.054
594.570,26.979
594.843,26.890
595.116,26.795
595.389,26.695
595.662,26.583
595.934,26.474
596.207,26.375
596.480,26.275
596.753,26.175
597.026,26.060
597.299,25.960
597.572,25.873
597.844,25.795
598.117,25.685
598.390,25.559
598.663,25.412
598.936,25.282
599.208,25.164
599.481,25.066
599.754,24.970
600.026,24.856
600.299,24.742
600.572,24.637
600.844,24.537
601.117,24.424
601.390,24.299
601.662,24.176
601.935,24.054
602.207,23.936
602.480,23.813
602.752,23.686
603.025,23.551
603.297,23.430
603.570,23.338
603.842,23.279
604.115,23.200
604.387,23.109
604.660,22.980
604.932,22.854
605.204,22.716
605.477,22.588
605.749,22.469
606.021,22.355
606.294,22.243
606.566,22.118
606.838,22.000
607.110,21.896
607.383,21.824
607.655,21.766
607.927,21.708
608.199,21.642
608.471,21.556
608.743,21.445
609.015,21.307
609.287,21.166
609.559,21.034
609.831,20.921
610.103,20.804
610.375,20.677
610.647,20.526
610.919,20.380
611.191,20.236
611.463,20.112
611.735,19.975
612.007,19.833
612.278,19.685
612.550,19.552
612.822,19.429
613.094,19.316
613.365,19.187
613.637,19.071
613.909,18.940
614.180,18.822
614.452,18.686
614.723,18.550
614.995,18.416
615.266,18.308
615.538,18.220
615.809,18.143
616.081,18.038
616.352,17.912
616.623,17.771
616.895,17.645
617.166,17.517
617.437,17.391
617.709,17.263
617.980,17.160
618.251,17.070
618.522,16.998
618.793,16.934
619.065,16.886
619.336,16.800
619.607,16.686
619.878,16.560
620.149,16.464
620.420,16.357
620.691,16.235
620.962,16.106
621.232,16.017
621.503,15.919
621.774,15.828
622.045,15.729
622.316,15.674
622.586,15.617
622.857,15.563
623.128,15.471
623.398,15.373
623.669,15.262
623.940,15.152
624.210,15.029
624.481,14.928
624.751,14.834
625.021,14.757
625.292,14.673
625.562,14.612
625.833,14.552
626.103,14.496
626.373,14.423
626.643,14.357
626.914,14.278
627.184,14.196
627.454,14.100
627.724,14.005
627.994,13.906
628.264,13.812
628.534,13.716
628.804,13.635
629.074,13.573
629.344,13.521
629.614,13.468
629.884,13.406
630.154,13.348
630.424,13.282
630.693,13.212
630.963,13.129
631.233,13.041
631.502,12.968
631.772,12.910
632.041,12.853
632.311,12.772
632.581,12.680
632.850,12.585
633.119,12.488
633.389,12.393
633.658,12.323
633.928,12.292
634.197,12.284
634.466,12.274
634.735,12.248
635.004,12.189
635.274,12.114
635.543,12.030
635.812,11.959
636.081,11.899
636.350,11.845
636.619,11.785
636.888,11.720
637.157,11.647
637.426,11.579
637.694,11.510
637.963,11.441
638.232,11.377
638.501,11.316
638.769,11.271
639.038,11.222
639.307,11.169
639.575,11.103
639.844,11.019
640.112,10.924
640.381,10.823
640.649,10.743
640.917,10.687
641.186,10.633
641.454,10.589
641.722,10.536
641.991,10.480
642.259,10.410
642.527,10.335
642.795,10.276
643.063,10.213
643.331,10.161
643.599,10.115
643.867,10.093
644.135,10.066
644.403,10.040
644.671,9.989
644.939,9.939
645.206,9.875
645.474,9.817
645.742,9.754
646.009,9.690
646.277,9.636
646.545,9.581
646.812,9.538
647.080,9.495
647.347,9.450
647.615,9.389
647.882,9.301
648.149,9.216
648.417,9.133
648.684,9.071
648.951,9.022
649.219,8.989
649.486,8.952
649.753,8.905
650.020,8.843
650.287,8.778
650.554,8.704
650.821,8.632
651.088,8.558
651.355,8.510
651.622,8.457
651.889,8.415
652.155,8.354
652.422,8.301
652.689,8.258
652.956,8.218
653.222,8.177
653.489,8.139
653.755,8.085
654.022,8.015
654.288,7.922
654.555,7.843
654.821,7.779
655.088,7.721
655.354,7.664
655.620,7.617
655.887,7.574
656.153,7.526
656.419,7.465
656.685,7.401
656.951,7.341
657.217,7.283
657.483,7.232
657.749,7.189
658.015,7.150
658.281,7.105
658.547,7.043
658.813,6.979
659.079,6.914
659.345,6.847
659.610,6.780
659.876,6.724
660.142,6.684
660.407,6.651
660.673,6.615
660.939,6.581
661.204,6.533
661.470,6.485
661.735,6.436
662.000,6.402
662.266,6.364
662.531,6.315
662.796,6.260
663.062,6.200
663.327,6.139
663.592,6.085
663.857,6.042
664.122,6.004
664.388,5.959
664.653,5.917
664.918,5.884
665.183,5.848
665.448,5.821
665.712,5.791
665.977,5.764
666.242,5.733
666.507,5.670
666.772,5.609
667.037,5.540
667.301,5.499
667.566,5.456
667.831,5.423
668.095,5.389
668.360,5.361
668.624,5.316
668.889,5.292
669.153,5.262
669.418,5.246
669.682,5.216
669.946,5.197
670.211,5.189
670.475,5.175
670.739,5.158
671.004,5.134
671.268,5.122
671.532,5.117
671.796,5.056
672.060,4.980
672.324,4.896
672.588,4.869
672.852,4.855
673.116,4.874
673.380,4.894
673.644,4.841
673.908,4.747
674.172,4.648
674.436,4.622
674.700,4.598
674.963,4.570
675.227,4.534
675.491,4.487
675.754,4.443
676.018,4.397
676.282,4.368
676.545,4.330
676.809,4.291
677.072,4.248
677.336,4.208
677.599,4.176
677.863,4.148
678.126,4.132
678.389,4.129
678.653,4.123
678.916,4.100
679.179,4.051
679.442,4.004
679.706,3.973
679.969,3.951
680.232,3.932
680.495,3.920
680.758,3.909
681.021,3.881
681.284,3.836
681.547,3.791
681.810,3.769
682.073,3.766
682.336,3.759
682.599,3.737
682.862,3.709
683.125,3.693
683.388,3.690
683.651,3.683
683.913,3.668
684.176,3.628
684.439,3.578
684.702,3.522
684.964,3.482
685.227,3.458
685.490,3.451
685.752,3.457
686.015,3.447
686.277,3.421
686.540,3.386
686.802,3.350
687.065,3.330
687.327,3.321
687.590,3.313
687.852,3.291
688.115,3.254
688.377,3.228
688.639,3.210
688.902,3.196
689.164,3.180
689.426,3.169
689.689,3.163
689.951,3.143
690.213,3.116
690.475,3.080
690.737,3.051
691.000,3.022
691.262,3.002
691.524,2.992
691.786,2.993
692.048,2.997
692.310,2.981
692.572,2.944
692.834,2.898
693.096,2.872
693.358,2.867
693.620,2.877
693.882,2.884
694.144,2.874
694.406,2.848
694.668,2.823
694.930,2.800
695.192,2.779
695.453,2.758
695.715,2.743
695.977,2.727
696.239,2.702
696.501,2.686
696.762,2.685
697.024,2.687
697.286,2.670
697.548,2.649
697.809,2.631
698.071,2.614
698.333,2.595
698.594,2.575
698.856,2.568
699.118,2.560
699.379,2.552
699.641,2.545
699.902,2.541
700.164,2.530
700.426,2.512
700.687,2.488
700.949,2.471
701.210,2.455
701.472,2.439
701.733,2.420
701.995,2.407
702.256,2.395
702.518,2.382
702.779,2.368
703.041,2.374
703.302,2.385
703.563,2.378
703.825,2.351
704.086,2.326
704.348,2.315
704.609,2.313
704.871,2.319
705.132,2.328
705.393,2.320
705.655,2.305
705.916,2.292
706.177,2.287
706.439,2.279
706.700,2.267
706.961,2.255
707.223,2.245
707.484,2.215
707.745,2.185
708.007,2.154
708.268,2.130
708.529,2.109
708.790,2.079
709.052,2.057
709.313,2.049
709.574,2.049
709.835,2.046
710.097,2.027
710.358,1.993
710.619,1.963
710.881,1.938
711.142,1.926
711.403,1.910
711.664,1.899
711.926,1.879
712.187,1.874
712.448,1.869
712.709,1.874
712.970,1.879
713.232,1.882
713.493,1.882
713.754,1.875
714.015,1.869
714.277,1.867
714.538,1.869
714.799,1.880
715.060,1.884
715.322,1.883
715.583,1.866
715.844,1.850
716.105,1.832
716.367,1.819
716.628,1.810
716.889,1.802
717.150,1.789
717.411,1.767
717.673,1.752
717.934,1.744
718.195,1.743
718.457,1.727
718.718,1.704
718.979,1.687
719.240,1.687
719.502,1.703
719.763,1.717
720.024,1.725
720.286,1.724
720.547,1.708
720.808,1.690
721.069,1.679
721.331,1.686
721.592,1.703
721.853,1.708
722.115,1.706
722.376,1.699
722.638,1.690
722.899,1.682
723.160,1.667
723.422,1.658
723.683,1.648
723.944,1.649
724.206,1.649
724.467,1.644
724.729,1.635
724.990,1.639
725.252,1.649
725.513,1.642
725.775,1.621
726.036,1.602
726.298,1.598
726.559,1.607
726.821,1.608
727.082,1.609
727.344,1.604
727.605,1.603
727.867,1.596
728.128,1.600
728.390,1.601
728.652,1.614
728.913,1.631
729.175,1.644
729.436,1.647
729.698,1.643
729.960,1.633
730.221,1.620
730.483,1.596
730.745,1.586
731.007,1.583
731.268,1.586
731.530,1.587
731.792,1.588
732.054,1.593
732.315,1.598
732.577,1.603
732.839,1.594
733.101,1.579
733.363,1.568
733.625,1.567
733.887,1.575
734.149,1.578
734.411,1.584
734.673,1.589
734.935,1.593
735.197,1.590
735.459,1.593
735.721,1.597
735.983,1.593
