Wavelength (nm),Intensity W30.3,,C:/Users/Brend/Desktop/LED Spectras v2/Spectrometer Data (White).sp,,,W30.3,
379.792,2.625,,2018-06-15 14:43:10,,Integration Time,248 ms,
380.000,2.617,,Analyze Light,,Number of Scans to Average,25,
380.209,2.611,,,,Smoothing,1,
380.418,2.633
380.627,2.661
380.837,2.689
381.048,2.700
381.259,2.696
381.471,2.689
381.683,2.696
381.896,2.722
382.110,2.741
382.324,2.765
382.538,2.795
382.753,2.828
382.969,2.821
383.185,2.802
383.402,2.780
383.619,2.798
383.837,2.824
384.055,2.869
384.274,2.903
384.493,2.925
384.712,2.927
384.932,2.930
385.153,2.937
385.374,2.952
385.596,2.967
385.818,3.002
386.040,3.041
386.263,3.079
386.487,3.087
386.710,3.082
386.935,3.055
387.159,3.038
387.385,3.023
387.610,3.025
387.836,3.034
388.063,3.058
388.289,3.085
388.517,3.110
388.744,3.114
388.972,3.137
389.201,3.151
389.430,3.177
389.659,3.189
389.889,3.213
390.119,3.229
390.349,3.247
390.580,3.266
390.811,3.282
391.042,3.290
391.274,3.297
391.507,3.307
391.739,3.311
391.972,3.303
392.205,3.310
392.439,3.334
392.673,3.368
392.907,3.392
393.142,3.415
393.377,3.432
393.612,3.457
393.848,3.470
394.084,3.486
394.320,3.486
394.557,3.503
394.794,3.514
395.031,3.540
395.269,3.562
395.507,3.590
395.745,3.598
395.983,3.605
396.222,3.613
396.461,3.647
396.700,3.688
396.940,3.717
397.180,3.726
397.420,3.722
397.660,3.715
397.901,3.712
398.142,3.714
398.383,3.714
398.625,3.710
398.866,3.725
399.108,3.768
399.351,3.837
399.593,3.864
399.836,3.871
400.079,3.851
400.322,3.844
400.566,3.834
400.809,3.833
401.053,3.840
401.298,3.853
401.542,3.876
401.787,3.911
402.031,3.942
402.277,3.967
402.522,3.972
402.767,3.985
403.013,3.978
403.259,3.989
403.505,3.996
403.752,4.013
403.998,4.020
404.245,4.055
404.492,4.090
404.739,4.120
404.986,4.126
405.234,4.144
405.482,4.155
405.730,4.161
405.978,4.163
406.226,4.164
406.475,4.155
406.723,4.157
406.972,4.180
407.221,4.221
407.470,4.241
407.720,4.256
407.969,4.245
408.219,4.260
408.469,4.274
408.719,4.304
408.969,4.317
409.219,4.336
409.470,4.354
409.720,4.384
409.971,4.410
410.222,4.448
410.473,4.466
410.724,4.474
410.976,4.479
411.227,4.505
411.479,4.531
411.731,4.560
411.983,4.563
412.235,4.573
412.487,4.566
412.740,4.578
412.992,4.587
413.245,4.607
413.497,4.606
413.750,4.613
414.003,4.610
414.257,4.615
414.510,4.621
414.763,4.654
415.017,4.687
415.270,4.715
415.524,4.716
415.778,4.721
416.032,4.727
416.286,4.762
416.540,4.789
416.794,4.824
417.049,4.835
417.303,4.855
417.558,4.870
417.812,4.885
418.067,4.895
418.322,4.907
418.577,4.908
418.832,4.910
419.088,4.900
419.343,4.913
419.598,4.911
419.854,4.923
420.109,4.925
420.365,4.954
420.621,4.970
420.876,5.000
421.132,5.017
421.388,5.036
421.645,5.039
421.901,5.052
422.157,5.066
422.413,5.087
422.670,5.099
422.926,5.120
423.183,5.125
423.439,5.147
423.696,5.168
423.953,5.233
424.210,5.284
424.467,5.319
424.724,5.319
424.981,5.324
425.238,5.343
425.495,5.396
425.753,5.446
426.010,5.500
426.267,5.537
426.525,5.602
426.782,5.663
427.040,5.734
427.298,5.794
427.555,5.873
427.813,5.937
428.071,6.002
428.329,6.059
428.587,6.134
428.845,6.213
429.103,6.306
429.361,6.398
429.619,6.496
429.878,6.588
430.136,6.697
430.394,6.801
430.653,6.938
430.911,7.087
431.170,7.249
431.428,7.385
431.687,7.516
431.946,7.645
432.204,7.794
432.463,7.957
432.722,8.134
432.981,8.311
433.240,8.502
433.499,8.702
433.758,8.923
434.017,9.116
434.276,9.314
434.535,9.506
434.794,9.730
435.053,9.964
435.312,10.216
435.572,10.469
435.831,10.744
436.090,11.034
436.350,11.343
436.609,11.656
436.869,11.975
437.128,12.292
437.388,12.622
437.647,12.968
437.907,13.347
438.166,13.732
438.426,14.123
438.686,14.517
438.946,14.924
439.205,15.353
439.465,15.812
439.725,16.295
439.985,16.796
440.245,17.281
440.505,17.778
440.765,18.279
441.025,18.799
441.285,19.329
441.545,19.880
441.805,20.439
442.065,21.011
442.325,21.595
442.585,22.222
442.846,22.882
443.106,23.595
443.366,24.339
443.626,25.102
443.887,25.876
444.147,26.655
444.407,27.463
444.668,28.299
444.928,29.186
445.189,30.135
445.449,31.127
445.710,32.153
445.970,33.201
446.231,34.302
446.491,35.467
446.752,36.689
447.012,37.953
447.273,39.275
447.534,40.637
447.794,42.021
448.055,43.438
448.316,44.947
448.577,46.565
448.837,48.277
449.098,50.056
449.359,51.864
449.620,53.676
449.881,55.517
450.142,57.403
450.403,59.369
450.664,61.392
450.924,63.487
451.185,65.614
451.446,67.761
451.707,69.909
451.969,72.082
452.230,74.250
452.491,76.401
452.752,78.483
453.013,80.490
453.274,82.364
453.535,84.048
453.796,85.464
454.058,86.630
454.319,87.606
454.580,88.467
454.841,89.233
455.103,89.898
455.364,90.472
455.625,90.972
455.887,91.392
456.148,91.734
456.409,92.001
456.671,92.202
456.932,92.343
457.194,92.422
457.455,92.462
457.716,92.458
457.978,92.422
458.239,92.342
458.501,92.236
458.763,92.082
459.024,91.886
459.286,91.633
459.547,91.337
459.809,90.975
460.071,90.553
460.332,90.065
460.594,89.512
460.856,88.899
461.117,88.217
461.379,87.477
461.641,86.652
461.903,85.709
462.164,84.620
462.426,83.392
462.688,82.034
462.950,80.603
463.212,79.139
463.474,77.696
463.736,76.276
463.998,74.902
464.260,73.584
464.522,72.338
464.784,71.132
465.046,69.964
465.308,68.841
465.570,67.782
465.832,66.802
466.094,65.870
466.356,64.987
466.618,64.122
466.880,63.284
467.142,62.479
467.405,61.739
467.667,61.069
467.929,60.448
468.191,59.860
468.454,59.270
468.716,58.675
468.978,58.046
469.241,57.411
469.503,56.806
469.765,56.255
470.028,55.731
470.290,55.200
470.552,54.651
470.815,54.123
471.077,53.604
471.340,53.087
471.602,52.536
471.865,51.963
472.128,51.373
472.390,50.800
472.653,50.226
472.915,49.650
473.178,49.035
473.441,48.396
473.703,47.738
473.966,47.074
474.229,46.381
474.492,45.678
474.755,44.955
475.017,44.265
475.280,43.577
475.543,42.900
475.806,42.186
476.069,41.454
476.332,40.722
476.595,40.023
476.858,39.335
477.121,38.649
477.384,37.977
477.647,37.342
477.910,36.728
478.173,36.129
478.436,35.532
478.699,34.951
478.962,34.383
479.226,33.856
479.489,33.336
479.752,32.838
480.015,32.340
480.279,31.863
480.542,31.392
480.805,30.934
481.069,30.496
481.332,30.088
481.595,29.702
481.859,29.376
482.122,29.067
482.386,28.765
482.649,28.438
482.913,28.117
483.177,27.803
483.440,27.506
483.704,27.237
483.967,27.023
484.231,26.834
484.495,26.656
484.759,26.460
485.022,26.256
485.286,26.054
485.550,25.854
485.814,25.637
486.078,25.429
486.342,25.254
486.606,25.129
486.869,25.010
487.133,24.887
487.397,24.762
487.662,24.639
487.926,24.503
488.190,24.382
488.454,24.256
488.718,24.146
488.982,24.006
489.246,23.884
489.511,23.757
489.775,23.644
490.039,23.519
490.304,23.388
490.568,23.257
490.832,23.147
491.097,23.069
491.361,23.009
491.626,22.936
491.890,22.858
492.155,22.779
492.419,22.724
492.684,22.660
492.949,22.609
493.213,22.554
493.478,22.521
493.743,22.483
494.008,22.435
494.272,22.389
494.537,22.379
494.802,22.394
495.067,22.425
495.332,22.455
495.597,22.495
495.862,22.523
496.127,22.556
496.392,22.575
496.657,22.597
496.922,22.619
497.187,22.684
497.452,22.779
497.718,22.907
497.983,23.015
498.248,23.109
498.513,23.172
498.779,23.268
499.044,23.374
499.310,23.478
499.575,23.556
499.841,23.655
500.106,23.771
500.372,23.893
500.637,24.013
500.903,24.161
501.168,24.301
501.434,24.433
501.700,24.532
501.966,24.668
502.231,24.804
502.497,24.947
502.763,25.053
503.029,25.168
503.295,25.288
503.561,25.434
503.827,25.580
504.093,25.743
504.359,25.898
504.625,26.065
504.891,26.207
505.157,26.355
505.423,26.468
505.690,26.599
505.956,26.739
506.222,26.918
506.489,27.115
506.755,27.312
507.021,27.492
507.288,27.656
507.554,27.804
507.821,27.963
508.087,28.116
508.354,28.299
508.621,28.450
508.887,28.598
509.154,28.729
509.421,28.886
509.687,29.034
509.954,29.181
510.221,29.326
510.488,29.503
510.755,29.683
511.022,29.864
511.289,29.999
511.556,30.124
511.823,30.231
512.090,30.365
512.357,30.477
512.624,30.604
512.891,30.725
513.159,30.868
513.426,31.012
513.693,31.155
513.960,31.291
514.228,31.416
514.495,31.529
514.763,31.653
515.030,31.777
515.298,31.905
515.565,32.031
515.833,32.160
516.100,32.283
516.368,32.397
516.636,32.492
516.904,32.608
517.171,32.709
517.439,32.836
517.707,32.948
517.975,33.090
518.243,33.227
518.511,33.354
518.779,33.449
519.047,33.563
519.315,33.685
519.583,33.807
519.851,33.887
520.119,33.966
520.387,34.047
520.656,34.146
520.924,34.247
521.192,34.354
521.461,34.446
521.729,34.537
521.997,34.616
522.266,34.709
522.534,34.795
522.803,34.900
523.071,34.995
523.340,35.088
523.609,35.163
523.877,35.245
524.146,35.337
524.415,35.439
524.684,35.535
524.952,35.611
525.221,35.677
525.490,35.767
525.759,35.858
526.028,35.941
526.297,35.992
526.566,36.057
526.835,36.135
527.104,36.226
527.373,36.301
527.642,36.365
527.912,36.403
528.181,36.444
528.450,36.500
528.719,36.580
528.989,36.662
529.258,36.733
529.528,36.766
529.797,36.785
530.067,36.806
530.336,36.846
530.606,36.888
530.875,36.910
531.145,36.924
531.414,36.951
531.684,36.999
531.954,37.039
532.224,37.068
532.493,37.080
532.763,37.106
533.033,37.152
533.303,37.213
533.573,37.281
533.843,37.304
534.113,37.329
534.383,37.331
534.653,37.359
534.923,37.378
535.193,37.413
535.463,37.455
535.733,37.501
536.004,37.538
536.274,37.565
536.544,37.575
536.814,37.600
537.085,37.636
537.355,37.704
537.626,37.774
537.896,37.844
538.166,37.887
538.437,37.922
538.707,37.959
538.978,38.019
539.249,38.107
539.519,38.197
539.790,38.260
540.061,38.298
540.331,38.323
540.602,38.358
540.873,38.380
541.144,38.406
541.414,38.415
541.685,38.435
541.956,38.440
542.227,38.454
542.498,38.469
542.769,38.505
543.040,38.561
543.311,38.646
543.582,38.745
543.853,38.841
544.124,38.915
544.396,38.963
544.667,38.981
544.938,38.980
545.209,38.921
545.480,38.865
545.752,38.791
546.023,38.768
546.294,38.732
546.566,38.716
546.837,38.696
547.109,38.707
547.380,38.716
547.652,38.732
547.923,38.733
548.195,38.739
548.466,38.738
548.738,38.738
549.009,38.697
549.281,38.647
549.553,38.585
549.824,38.540
550.096,38.515
550.368,38.516
550.640,38.529
550.911,38.540
551.183,38.563
551.455,38.599
551.727,38.598
551.999,38.559
552.271,38.507
552.543,38.496
552.815,38.493
553.087,38.506
553.359,38.500
553.631,38.487
553.903,38.432
554.175,38.361
554.447,38.286
554.719,38.237
554.991,38.200
555.263,38.175
555.535,38.133
555.808,38.101
556.080,38.061
556.352,38.037
556.624,37.999
556.897,37.945
557.169,37.868
557.441,37.788
557.714,37.718
557.986,37.686
558.258,37.655
558.531,37.664
558.803,37.662
559.076,37.664
559.348,37.617
559.621,37.556
559.893,37.494
560.166,37.447
560.438,37.397
560.711,37.361
560.983,37.343
561.256,37.350
561.528,37.353
561.801,37.337
562.074,37.308
562.346,37.278
562.619,37.236
562.892,37.173
563.164,37.099
563.437,37.059
563.710,37.027
563.983,36.990
564.255,36.939
564.528,36.922
564.801,36.939
565.074,36.958
565.346,36.936
565.619,36.897
565.892,36.844
566.165,36.773
566.438,36.658
566.711,36.534
566.984,36.445
567.257,36.392
567.529,36.365
567.802,36.369
568.075,36.365
568.348,36.341
568.621,36.283
568.894,36.208
569.167,36.122
569.440,36.031
569.713,35.907
569.986,35.778
570.259,35.622
570.532,35.515
570.805,35.429
571.078,35.376
571.351,35.321
571.625,35.276
571.898,35.210
572.171,35.121
572.444,35.000
572.717,34.899
572.990,34.804
573.263,34.698
573.536,34.571
573.809,34.454
574.083,34.365
574.356,34.313
574.629,34.293
574.902,34.261
575.175,34.194
575.448,34.082
575.721,33.959
575.995,33.853
576.268,33.768
576.541,33.726
576.814,33.693
577.087,33.675
577.361,33.643
577.634,33.603
577.907,33.517
578.180,33.406
578.453,33.288
578.727,33.193
579.000,33.102
579.273,33.029
579.546,32.970
579.820,32.943
580.093,32.913
580.366,32.876
580.639,32.818
580.913,32.773
581.186,32.715
581.459,32.653
581.732,32.542
582.005,32.423
582.279,32.277
582.552,32.148
582.825,32.024
583.098,31.937
583.372,31.879
583.645,31.856
583.918,31.851
584.191,31.848
584.464,31.820
584.738,31.762
585.011,31.665
585.284,31.538
585.557,31.392
585.831,31.260
586.104,31.140
586.377,31.072
586.650,31.024
586.923,31.001
587.196,30.962
587.470,30.906
587.743,30.843
588.016,30.772
588.289,30.697
588.562,30.620
588.835,30.521
589.109,30.407
589.382,30.288
589.655,30.195
589.928,30.132
590.201,30.087
590.474,30.066
590.747,30.044
591.020,29.994
591.293,29.909
591.567,29.792
591.840,29.665
592.113,29.513
592.386,29.358
592.659,29.207
592.932,29.092
593.205,29.012
593.478,28.954
593.751,28.891
594.024,28.827
594.297,28.741
594.570,28.640
594.843,28.533
595.116,28.435
595.389,28.337
595.662,28.232
595.934,28.128
596.207,28.046
596.480,27.964
596.753,27.894
597.026,27.802
597.299,27.716
597.572,27.614
597.844,27.511
598.117,27.376
598.390,27.225
598.663,27.056
598.936,26.902
599.208,26.760
599.481,26.644
599.754,26.548
600.026,26.445
600.299,26.338
600.572,26.229
600.844,26.126
601.117,26.014
601.390,25.889
601.662,25.767
601.935,25.632
602.207,25.500
602.480,25.363
602.752,25.239
603.025,25.104
603.297,24.975
603.570,24.873
603.842,24.814
604.115,24.746
604.387,24.653
604.660,24.503
604.932,24.361
605.204,24.229
605.477,24.118
605.749,24.001
606.021,23.876
606.294,23.751
606.566,23.624
606.838,23.496
607.110,23.383
607.383,23.297
607.655,23.232
607.927,23.171
608.199,23.105
608.471,23.012
608.743,22.893
609.015,22.751
609.287,22.610
609.559,22.475
609.831,22.358
610.103,22.242
610.375,22.120
610.647,21.978
610.919,21.823
611.191,21.667
611.463,21.519
611.735,21.373
612.007,21.214
612.278,21.055
612.550,20.904
612.822,20.768
613.094,20.635
613.365,20.482
613.637,20.336
613.909,20.194
614.180,20.078
614.452,19.950
614.723,19.817
614.995,19.673
615.266,19.547
615.538,19.439
615.809,19.347
616.081,19.239
616.352,19.118
616.623,18.976
616.895,18.835
617.166,18.670
617.437,18.521
617.709,18.387
617.980,18.301
618.251,18.230
618.522,18.167
618.793,18.105
619.065,18.060
619.336,17.981
619.607,17.866
619.878,17.727
620.149,17.604
620.420,17.476
620.691,17.344
620.962,17.214
621.232,17.116
621.503,17.009
621.774,16.914
622.045,16.823
622.316,16.770
622.586,16.712
622.857,16.653
623.128,16.553
623.398,16.458
623.669,16.341
623.940,16.222
624.210,16.086
624.481,15.992
624.751,15.909
625.021,15.839
625.292,15.753
625.562,15.693
625.833,15.629
626.103,15.561
626.373,15.460
626.643,15.366
626.914,15.262
627.184,15.183
627.454,15.102
627.724,15.025
627.994,14.939
628.264,14.852
628.534,14.756
628.804,14.658
629.074,14.579
629.344,14.519
629.614,14.464
629.884,14.398
630.154,14.327
630.424,14.249
630.693,14.166
630.963,14.075
631.233,13.983
631.502,13.904
631.772,13.838
632.041,13.775
632.311,13.688
632.581,13.596
632.850,13.502
633.119,13.408
633.389,13.322
633.658,13.256
633.928,13.222
634.197,13.199
634.466,13.177
634.735,13.141
635.004,13.076
635.274,12.998
635.543,12.904
635.812,12.823
636.081,12.747
636.350,12.688
636.619,12.623
636.888,12.551
637.157,12.467
637.426,12.399
637.694,12.332
637.963,12.265
638.232,12.202
638.501,12.144
638.769,12.093
639.038,12.035
639.307,11.972
639.575,11.907
639.844,11.819
640.112,11.733
640.381,11.641
640.649,11.568
640.917,11.505
641.186,11.442
641.454,11.388
641.722,11.330
641.991,11.273
642.259,11.192
642.527,11.110
642.795,11.042
643.063,10.973
643.331,10.913
643.599,10.861
643.867,10.841
644.135,10.817
644.403,10.786
644.671,10.730
644.939,10.680
645.206,10.620
645.474,10.567
645.742,10.499
646.009,10.424
646.277,10.360
646.545,10.303
646.812,10.262
647.080,10.218
647.347,10.172
647.615,10.110
647.882,10.021
648.149,9.932
648.417,9.852
648.684,9.796
648.951,9.752
649.219,9.713
649.486,9.660
649.753,9.592
650.020,9.515
650.287,9.439
650.554,9.356
650.821,9.272
651.088,9.183
651.355,9.124
651.622,9.063
651.889,9.019
652.155,8.957
652.422,8.912
652.689,8.877
652.956,8.842
653.222,8.807
653.489,8.781
653.755,8.738
654.022,8.660
654.288,8.548
654.555,8.451
654.821,8.386
655.088,8.335
655.354,8.287
655.620,8.243
655.887,8.200
656.153,8.156
656.419,8.101
656.685,8.041
656.951,7.977
657.217,7.908
657.483,7.844
657.749,7.791
658.015,7.746
658.281,7.690
658.547,7.613
658.813,7.536
659.079,7.461
659.345,7.392
659.610,7.320
659.876,7.257
660.142,7.204
660.407,7.163
660.673,7.128
660.939,7.102
661.204,7.059
661.470,7.011
661.735,6.961
662.000,6.930
662.266,6.889
662.531,6.836
662.796,6.780
663.062,6.727
663.327,6.665
663.592,6.615
663.857,6.571
664.122,6.540
664.388,6.496
664.653,6.458
664.918,6.427
665.183,6.390
665.448,6.360
665.712,6.327
665.977,6.298
666.242,6.254
666.507,6.170
666.772,6.088
667.037,6.007
667.301,5.971
667.566,5.933
667.831,5.912
668.095,5.882
668.360,5.855
668.624,5.793
668.889,5.751
669.153,5.706
669.418,5.684
669.682,5.656
669.946,5.631
670.211,5.617
670.475,5.594
670.739,5.569
671.004,5.543
671.268,5.540
671.532,5.555
671.796,5.498
672.060,5.424
672.324,5.334
672.588,5.312
672.852,5.296
673.116,5.322
673.380,5.351
673.644,5.291
673.908,5.183
674.172,5.070
674.436,5.040
674.700,5.013
674.963,4.984
675.227,4.950
675.491,4.897
675.754,4.845
676.018,4.793
676.282,4.770
676.545,4.736
676.809,4.692
677.072,4.635
677.336,4.585
677.599,4.554
677.863,4.524
678.126,4.503
678.389,4.497
678.653,4.495
678.916,4.474
679.179,4.423
679.442,4.372
679.706,4.339
679.969,4.310
680.232,4.288
680.495,4.273
680.758,4.267
681.021,4.241
681.284,4.195
681.547,4.143
681.810,4.120
682.073,4.119
682.336,4.119
682.599,4.097
682.862,4.067
683.125,4.040
683.388,4.028
683.651,4.014
683.913,3.995
684.176,3.948
684.439,3.890
684.702,3.831
684.964,3.791
685.227,3.772
685.490,3.771
685.752,3.786
686.015,3.782
686.277,3.759
686.540,3.716
686.802,3.668
687.065,3.636
687.327,3.619
687.590,3.609
687.852,3.584
688.115,3.543
688.377,3.511
688.639,3.489
688.902,3.470
689.164,3.453
689.426,3.449
689.689,3.448
689.951,3.432
690.213,3.402
690.475,3.375
690.737,3.347
691.000,3.319
691.262,3.294
691.524,3.286
691.786,3.289
692.048,3.291
692.310,3.272
692.572,3.231
692.834,3.185
693.096,3.160
693.358,3.156
693.620,3.166
693.882,3.174
694.144,3.163
694.406,3.131
694.668,3.098
694.930,3.065
695.192,3.034
695.453,3.012
695.715,3.000
695.977,2.981
696.239,2.951
696.501,2.928
696.762,2.928
697.024,2.926
697.286,2.904
697.548,2.874
697.809,2.855
698.071,2.839
698.333,2.822
698.594,2.804
698.856,2.799
699.118,2.791
699.379,2.779
699.641,2.769
699.902,2.769
700.164,2.760
700.426,2.740
700.687,2.708
700.949,2.688
701.210,2.673
701.472,2.656
701.733,2.630
701.995,2.616
702.256,2.603
702.518,2.589
702.779,2.563
703.041,2.566
703.302,2.585
703.563,2.587
703.825,2.560
704.086,2.523
704.348,2.505
704.609,2.501
704.871,2.513
705.132,2.527
705.393,2.514
705.655,2.490
705.916,2.467
706.177,2.461
706.439,2.453
706.700,2.442
706.961,2.429
707.223,2.419
707.484,2.389
707.745,2.359
708.007,2.324
708.268,2.295
708.529,2.266
708.790,2.229
709.052,2.204
709.313,2.193
709.574,2.189
709.835,2.187
710.097,2.167
710.358,2.133
710.619,2.099
710.881,2.071
711.142,2.057
711.403,2.038
711.664,2.029
711.926,2.009
712.187,2.003
712.448,2.000
712.709,2.014
712.970,2.024
713.232,2.026
713.493,2.021
713.754,2.008
714.015,2.001
714.277,2.003
714.538,2.013
714.799,2.032
715.060,2.036
715.322,2.029
715.583,2.001
715.844,1.977
716.105,1.954
716.367,1.938
716.628,1.930
716.889,1.925
717.150,1.911
717.411,1.885
717.673,1.869
717.934,1.864
718.195,1.865
718.457,1.851
718.718,1.826
718.979,1.813
719.240,1.820
719.502,1.837
719.763,1.850
720.024,1.852
720.286,1.846
720.547,1.821
720.808,1.796
721.069,1.780
721.331,1.786
721.592,1.802
721.853,1.808
722.115,1.808
722.376,1.806
722.638,1.800
722.899,1.793
723.160,1.771
723.422,1.750
723.683,1.738
723.944,1.745
724.206,1.752
724.467,1.753
724.729,1.750
724.990,1.760
725.252,1.770
725.513,1.759
725.775,1.729
726.036,1.704
726.298,1.698
726.559,1.706
726.821,1.708
727.082,1.710
727.344,1.703
727.605,1.699
727.867,1.689
728.128,1.693
728.390,1.699
728.652,1.717
728.913,1.740
729.175,1.756
729.436,1.756
729.698,1.752
729.960,1.741
730.221,1.727
730.483,1.697
730.745,1.684
731.007,1.681
731.268,1.687
731.530,1.690
731.792,1.694
732.054,1.703
732.315,1.711
732.577,1.718
732.839,1.710
733.101,1.693
733.363,1.679
733.625,1.675
733.887,1.682
734.149,1.684
734.411,1.692
734.673,1.698
734.935,1.704
735.197,1.699
735.459,1.704
735.721,1.707
