Wavelength (nm),Intensity W31.1,,C:/Users/Brend/Desktop/LED Spectras v2/Spectrometer Data (White).sp,,,W31.1,
379.792,2.394,,2018-06-15 14:45:27,,Integration Time,188 ms,
380.000,2.390,,Analyze Light,,Number of Scans to Average,25,
380.209,2.383,,,,Smoothing,1,
380.418,2.396
380.627,2.419
380.837,2.443
381.048,2.457
381.259,2.461
381.471,2.458
381.683,2.463
381.896,2.479
382.110,2.489
382.324,2.505
382.538,2.527
382.753,2.551
382.969,2.546
383.185,2.529
383.402,2.515
383.619,2.528
383.837,2.550
384.055,2.582
384.274,2.602
384.493,2.618
384.712,2.622
384.932,2.630
385.153,2.638
385.374,2.650
385.596,2.663
385.818,2.690
386.040,2.718
386.263,2.747
386.487,2.756
386.710,2.753
386.935,2.738
387.159,2.732
387.385,2.724
387.610,2.721
387.836,2.723
388.063,2.739
388.289,2.758
388.517,2.771
388.744,2.774
388.972,2.793
389.201,2.807
389.430,2.824
389.659,2.831
389.889,2.842
390.119,2.849
390.349,2.859
390.580,2.872
390.811,2.886
391.042,2.894
391.274,2.901
391.507,2.909
391.739,2.911
391.972,2.904
392.205,2.909
392.439,2.930
392.673,2.961
392.907,2.984
393.142,3.007
393.377,3.020
393.612,3.039
393.848,3.043
394.084,3.055
394.320,3.061
394.557,3.079
394.794,3.089
395.031,3.110
395.269,3.133
395.507,3.161
395.745,3.169
395.983,3.173
396.222,3.183
396.461,3.213
396.700,3.245
396.940,3.265
397.180,3.264
397.420,3.259
397.660,3.254
397.901,3.256
398.142,3.263
398.383,3.264
398.625,3.263
398.866,3.275
399.108,3.310
399.351,3.362
399.593,3.381
399.836,3.382
400.079,3.362
400.322,3.357
400.566,3.347
400.809,3.350
401.053,3.358
401.298,3.374
401.542,3.392
401.787,3.420
402.031,3.442
402.277,3.462
402.522,3.468
402.767,3.478
403.013,3.471
403.259,3.477
403.505,3.482
403.752,3.498
403.998,3.504
404.245,3.530
404.492,3.556
404.739,3.580
404.986,3.586
405.234,3.596
405.482,3.604
405.730,3.606
405.978,3.610
406.226,3.614
406.475,3.609
406.723,3.611
406.972,3.628
407.221,3.661
407.470,3.680
407.720,3.694
407.969,3.688
408.219,3.701
408.469,3.718
408.719,3.747
408.969,3.756
409.219,3.772
409.470,3.783
409.720,3.803
409.971,3.813
410.222,3.837
410.473,3.853
410.724,3.866
410.976,3.875
411.227,3.898
411.479,3.914
411.731,3.926
411.983,3.921
412.235,3.925
412.487,3.919
412.740,3.931
412.992,3.942
413.245,3.965
413.497,3.972
413.750,3.981
414.003,3.978
414.257,3.982
414.510,3.981
414.763,3.999
415.017,4.017
415.270,4.037
415.524,4.040
415.778,4.046
416.032,4.049
416.286,4.074
416.540,4.092
416.794,4.119
417.049,4.127
417.303,4.139
417.558,4.148
417.812,4.161
418.067,4.170
418.322,4.183
418.577,4.188
418.832,4.190
419.088,4.177
419.343,4.189
419.598,4.191
419.854,4.214
420.109,4.229
420.365,4.270
420.621,4.293
420.876,4.321
421.132,4.332
421.388,4.345
421.645,4.347
421.901,4.363
422.157,4.378
422.413,4.408
422.670,4.425
422.926,4.448
423.183,4.453
423.439,4.478
423.696,4.511
423.953,4.583
424.210,4.653
424.467,4.703
424.724,4.721
424.981,4.733
425.238,4.760
425.495,4.814
425.753,4.865
426.010,4.919
426.267,4.959
426.525,5.028
426.782,5.095
427.040,5.172
427.298,5.242
427.555,5.331
427.813,5.413
428.071,5.493
428.329,5.565
428.587,5.646
428.845,5.727
429.103,5.817
429.361,5.906
429.619,6.010
429.878,6.121
430.136,6.252
430.394,6.378
430.653,6.527
430.911,6.683
431.170,6.847
431.428,6.988
431.687,7.130
431.946,7.273
432.204,7.430
432.463,7.600
432.722,7.790
432.981,7.981
433.240,8.188
433.499,8.395
433.758,8.630
434.017,8.846
434.276,9.067
434.535,9.279
434.794,9.515
435.053,9.773
435.312,10.052
435.572,10.328
435.831,10.627
436.090,10.947
436.350,11.289
436.609,11.624
436.869,11.960
437.128,12.305
437.388,12.658
437.647,13.021
437.907,13.405
438.166,13.807
438.426,14.224
438.686,14.644
438.946,15.084
439.205,15.549
439.465,16.041
439.725,16.552
439.985,17.073
440.245,17.582
440.505,18.102
440.765,18.631
441.025,19.182
441.285,19.746
441.545,20.329
441.805,20.928
442.065,21.554
442.325,22.196
442.585,22.890
442.846,23.595
443.106,24.365
443.366,25.142
443.626,25.955
443.887,26.767
444.147,27.616
444.407,28.485
444.668,29.400
444.928,30.346
445.189,31.352
445.449,32.399
445.710,33.497
445.970,34.628
446.231,35.820
446.491,37.082
446.752,38.412
447.012,39.782
447.273,41.196
447.534,42.652
447.794,44.153
448.055,45.693
448.316,47.305
448.577,48.997
448.837,50.775
449.098,52.618
449.359,54.501
449.620,56.400
449.881,58.320
450.142,60.260
450.403,62.263
450.664,64.324
450.924,66.449
451.185,68.582
451.446,70.709
451.707,72.803
451.969,74.900
452.230,76.981
452.491,79.042
452.752,80.997
453.013,82.789
453.274,84.337
453.535,85.636
453.796,86.715
454.058,87.638
454.319,88.453
454.580,89.180
454.841,89.823
455.103,90.377
455.364,90.835
455.625,91.218
455.887,91.530
456.148,91.786
456.409,91.985
456.671,92.128
456.932,92.224
457.194,92.273
457.455,92.281
457.716,92.238
457.978,92.151
458.239,92.023
458.501,91.864
458.763,91.668
459.024,91.434
459.286,91.150
459.547,90.799
459.809,90.374
460.071,89.879
460.332,89.326
460.594,88.724
460.856,88.055
461.117,87.310
461.379,86.471
461.641,85.536
461.903,84.456
462.164,83.224
462.426,81.864
462.688,80.429
462.950,78.961
463.212,77.478
463.474,76.011
463.736,74.560
463.998,73.172
464.260,71.846
464.522,70.594
464.784,69.377
465.046,68.207
465.308,67.100
465.570,66.036
465.832,65.021
466.094,64.037
466.356,63.112
466.618,62.238
466.880,61.389
467.142,60.583
467.405,59.801
467.667,59.080
467.929,58.378
468.191,57.709
468.454,57.049
468.716,56.381
468.978,55.697
469.241,54.998
469.503,54.343
469.765,53.732
470.028,53.149
470.290,52.570
470.552,51.987
470.815,51.429
471.077,50.871
471.340,50.316
471.602,49.754
471.865,49.184
472.128,48.591
472.390,47.982
472.653,47.356
472.915,46.744
473.178,46.127
473.441,45.509
473.703,44.863
473.966,44.202
474.229,43.531
474.492,42.856
474.755,42.173
475.017,41.516
475.280,40.862
475.543,40.223
475.806,39.543
476.069,38.853
476.332,38.150
476.595,37.472
476.858,36.810
477.121,36.146
477.384,35.493
477.647,34.865
477.910,34.272
478.173,33.703
478.436,33.139
478.699,32.603
478.962,32.079
479.226,31.581
479.489,31.076
479.752,30.576
480.015,30.076
480.279,29.596
480.542,29.133
480.805,28.706
481.069,28.293
481.332,27.916
481.595,27.564
481.859,27.264
482.122,26.962
482.386,26.643
482.649,26.309
482.913,25.995
483.177,25.706
483.440,25.434
483.704,25.179
483.967,24.973
484.231,24.795
484.495,24.638
484.759,24.461
485.022,24.262
485.286,24.050
485.550,23.849
485.814,23.651
486.078,23.473
486.342,23.309
486.606,23.183
486.869,23.066
487.133,22.953
487.397,22.841
487.662,22.733
487.926,22.613
488.190,22.493
488.454,22.371
488.718,22.269
488.982,22.151
489.246,22.043
489.511,21.920
489.775,21.811
490.039,21.705
490.304,21.604
490.568,21.498
490.832,21.403
491.097,21.336
491.361,21.288
491.626,21.231
491.890,21.160
492.155,21.085
492.419,21.026
492.684,20.969
492.949,20.926
493.213,20.896
493.478,20.897
493.743,20.889
494.008,20.856
494.272,20.817
494.537,20.810
494.802,20.834
495.067,20.873
495.332,20.900
495.597,20.934
495.862,20.960
496.127,21.007
496.392,21.044
496.657,21.081
496.922,21.115
497.187,21.178
497.452,21.267
497.718,21.382
497.983,21.482
498.248,21.578
498.513,21.650
498.779,21.752
499.044,21.858
499.310,21.966
499.575,22.056
499.841,22.164
500.106,22.283
500.372,22.395
500.637,22.501
500.903,22.634
501.168,22.778
501.434,22.918
501.700,23.025
501.966,23.146
502.231,23.267
502.497,23.403
502.763,23.527
503.029,23.657
503.295,23.788
503.561,23.934
503.827,24.079
504.093,24.234
504.359,24.382
504.625,24.544
504.891,24.689
505.157,24.849
505.423,24.979
505.690,25.113
505.956,25.244
506.222,25.406
506.489,25.579
506.755,25.753
507.021,25.915
507.288,26.071
507.554,26.205
507.821,26.353
508.087,26.507
508.354,26.690
508.621,26.851
508.887,26.985
509.154,27.100
509.421,27.219
509.687,27.332
509.954,27.460
510.221,27.601
510.488,27.787
510.755,27.975
511.022,28.164
511.289,28.312
511.556,28.442
511.823,28.548
512.090,28.673
512.357,28.790
512.624,28.922
512.891,29.048
513.159,29.178
513.426,29.300
513.693,29.419
513.960,29.545
514.228,29.684
514.495,29.821
514.763,29.944
515.030,30.056
515.298,30.174
515.565,30.305
515.833,30.448
516.100,30.579
516.368,30.685
516.636,30.757
516.904,30.844
517.171,30.934
517.439,31.050
517.707,31.159
517.975,31.291
518.243,31.413
518.511,31.517
518.779,31.589
519.047,31.678
519.315,31.769
519.583,31.868
519.851,31.946
520.119,32.033
520.387,32.121
520.656,32.219
520.924,32.307
521.192,32.395
521.461,32.474
521.729,32.562
521.997,32.648
522.266,32.741
522.534,32.832
522.803,32.943
523.071,33.049
523.340,33.146
523.609,33.226
523.877,33.310
524.146,33.400
524.415,33.486
524.684,33.570
524.952,33.645
525.221,33.714
525.490,33.789
525.759,33.858
526.028,33.920
526.297,33.958
526.566,34.009
526.835,34.069
527.104,34.144
527.373,34.220
527.642,34.284
527.912,34.325
528.181,34.373
528.450,34.436
528.719,34.508
528.989,34.567
529.258,34.623
529.528,34.665
529.797,34.698
530.067,34.735
530.336,34.777
530.606,34.808
530.875,34.819
531.145,34.823
531.414,34.848
531.684,34.886
531.954,34.927
532.224,34.955
532.493,34.979
532.763,35.010
533.033,35.051
533.303,35.085
533.573,35.123
533.843,35.147
534.113,35.181
534.383,35.200
534.653,35.221
534.923,35.253
535.193,35.295
535.463,35.340
535.733,35.362
536.004,35.367
536.274,35.375
536.544,35.398
536.814,35.439
537.085,35.472
537.355,35.507
537.626,35.547
537.896,35.587
538.166,35.606
538.437,35.617
538.707,35.639
538.978,35.693
539.249,35.774
539.519,35.857
539.790,35.905
540.061,35.920
540.331,35.933
540.602,35.960
540.873,35.982
541.144,36.002
541.414,36.013
541.685,36.044
541.956,36.064
542.227,36.093
542.498,36.116
542.769,36.161
543.040,36.221
543.311,36.295
543.582,36.370
543.853,36.441
544.124,36.502
544.396,36.561
544.667,36.600
544.938,36.624
545.209,36.588
545.480,36.549
545.752,36.502
546.023,36.490
546.294,36.467
546.566,36.455
546.837,36.438
547.109,36.439
547.380,36.443
547.652,36.461
547.923,36.465
548.195,36.467
548.466,36.457
548.738,36.453
549.009,36.432
549.281,36.411
549.553,36.383
549.824,36.351
550.096,36.325
550.368,36.314
550.640,36.313
550.911,36.318
551.183,36.327
551.455,36.332
551.727,36.316
551.999,36.290
552.271,36.257
552.543,36.244
552.815,36.224
553.087,36.225
553.359,36.212
553.631,36.192
553.903,36.151
554.175,36.116
554.447,36.076
554.719,36.045
554.991,36.015
555.263,35.993
555.535,35.961
555.808,35.926
556.080,35.888
556.352,35.858
556.624,35.820
556.897,35.775
557.169,35.714
557.441,35.649
557.714,35.580
557.986,35.532
558.258,35.495
558.531,35.490
558.803,35.483
559.076,35.479
559.348,35.445
559.621,35.385
559.893,35.316
560.166,35.257
560.438,35.213
560.711,35.185
560.983,35.169
561.256,35.176
561.528,35.175
561.801,35.163
562.074,35.127
562.346,35.082
562.619,35.018
562.892,34.951
563.164,34.895
563.437,34.870
563.710,34.845
563.983,34.805
564.255,34.761
564.528,34.758
564.801,34.792
565.074,34.834
565.346,34.827
565.619,34.786
565.892,34.710
566.165,34.629
566.438,34.535
566.711,34.455
566.984,34.385
567.257,34.333
567.529,34.288
567.802,34.260
568.075,34.230
568.348,34.199
568.621,34.151
568.894,34.096
569.167,34.026
569.440,33.947
569.713,33.840
569.986,33.725
570.259,33.603
570.532,33.512
570.805,33.434
571.078,33.373
571.351,33.315
571.625,33.267
571.898,33.199
572.171,33.108
572.444,32.999
572.717,32.899
572.990,32.796
573.263,32.682
573.536,32.550
573.809,32.427
574.083,32.332
574.356,32.282
574.629,32.251
574.902,32.206
575.175,32.140
575.448,32.054
575.721,31.956
575.995,31.863
576.268,31.788
576.541,31.752
576.814,31.721
577.087,31.685
577.361,31.642
577.634,31.608
577.907,31.552
578.180,31.470
578.453,31.361
578.727,31.260
579.000,31.159
579.273,31.081
579.546,31.025
579.820,30.995
580.093,30.958
580.366,30.912
580.639,30.854
580.913,30.811
581.186,30.757
581.459,30.688
581.732,30.583
582.005,30.485
582.279,30.382
582.552,30.290
582.825,30.183
583.098,30.094
583.372,30.031
583.645,30.003
583.918,29.987
584.191,29.977
584.464,29.951
584.738,29.906
585.011,29.813
585.284,29.693
585.557,29.553
585.831,29.431
586.104,29.334
586.377,29.275
586.650,29.228
586.923,29.189
587.196,29.149
587.470,29.104
587.743,29.046
588.016,28.982
588.289,28.914
588.562,28.845
588.835,28.750
589.109,28.641
589.382,28.526
589.655,28.432
589.928,28.360
590.201,28.311
590.474,28.273
590.747,28.235
591.020,28.177
591.293,28.103
591.567,28.012
591.840,27.917
592.113,27.801
592.386,27.679
592.659,27.551
592.932,27.448
593.205,27.364
593.478,27.306
593.751,27.255
594.024,27.214
594.297,27.146
594.570,27.058
594.843,26.954
595.116,26.856
595.389,26.757
595.662,26.656
595.934,26.553
596.207,26.461
596.480,26.369
596.753,26.289
597.026,26.197
597.299,26.113
597.572,26.021
597.844,25.927
598.117,25.807
598.390,25.674
598.663,25.523
598.936,25.372
599.208,25.227
599.481,25.106
599.754,25.014
600.026,24.929
600.299,24.837
600.572,24.740
600.844,24.633
601.117,24.512
601.390,24.382
601.662,24.260
601.935,24.129
602.207,24.001
602.480,23.872
602.752,23.762
603.025,23.641
603.297,23.528
603.570,23.425
603.842,23.356
604.115,23.272
604.387,23.189
604.660,23.066
604.932,22.945
605.204,22.808
605.477,22.676
605.749,22.553
606.021,22.438
606.294,22.324
606.566,22.196
606.838,22.075
607.110,21.969
607.383,21.889
607.655,21.826
607.927,21.763
608.199,21.701
608.471,21.612
608.743,21.503
609.015,21.367
609.287,21.233
609.559,21.099
609.831,20.978
610.103,20.850
610.375,20.726
610.647,20.588
610.919,20.454
611.191,20.319
611.463,20.194
611.735,20.058
612.007,19.914
612.278,19.768
612.550,19.636
612.822,19.510
613.094,19.384
613.365,19.248
613.637,19.129
613.909,19.007
614.180,18.898
614.452,18.771
614.723,18.645
614.995,18.519
615.266,18.413
615.538,18.329
615.809,18.250
616.081,18.147
616.352,18.021
616.623,17.878
616.895,17.736
617.166,17.586
617.437,17.449
617.709,17.323
617.980,17.221
618.251,17.128
618.522,17.058
618.793,17.002
619.065,16.964
619.336,16.888
619.607,16.781
619.878,16.653
620.149,16.546
620.420,16.429
620.691,16.304
620.962,16.180
621.232,16.081
621.503,15.975
621.774,15.886
622.045,15.796
622.316,15.737
622.586,15.664
622.857,15.600
623.128,15.505
623.398,15.406
623.669,15.294
623.940,15.189
624.210,15.076
624.481,14.986
624.751,14.904
625.021,14.832
625.292,14.754
625.562,14.701
625.833,14.653
626.103,14.606
626.373,14.538
626.643,14.469
626.914,14.382
627.184,14.292
627.454,14.194
627.724,14.093
627.994,13.999
628.264,13.904
628.534,13.818
628.804,13.736
629.074,13.669
629.344,13.615
629.614,13.565
629.884,13.522
630.154,13.470
630.424,13.404
630.693,13.329
630.963,13.251
631.233,13.168
631.502,13.088
631.772,13.015
632.041,12.947
632.311,12.868
632.581,12.782
632.850,12.696
633.119,12.604
633.389,12.517
633.658,12.453
633.928,12.415
634.197,12.387
634.466,12.354
634.735,12.305
635.004,12.234
635.274,12.151
635.543,12.071
635.812,12.004
636.081,11.942
636.350,11.881
636.619,11.820
636.888,11.758
637.157,11.694
637.426,11.634
637.694,11.575
637.963,11.515
638.232,11.456
638.501,11.397
638.769,11.346
639.038,11.292
639.307,11.236
639.575,11.175
639.844,11.092
640.112,11.011
640.381,10.921
640.649,10.850
640.917,10.785
641.186,10.728
641.454,10.680
641.722,10.621
641.991,10.557
642.259,10.477
642.527,10.405
642.795,10.352
643.063,10.302
643.331,10.253
643.599,10.196
643.867,10.161
644.135,10.126
644.403,10.102
644.671,10.054
644.939,10.011
645.206,9.957
645.474,9.909
645.742,9.840
646.009,9.766
646.277,9.700
646.545,9.646
646.812,9.604
647.080,9.563
647.347,9.515
647.615,9.451
647.882,9.368
648.149,9.282
648.417,9.199
648.684,9.135
648.951,9.088
649.219,9.052
649.486,9.007
649.753,8.956
650.020,8.891
650.287,8.827
650.554,8.753
650.821,8.682
651.088,8.604
651.355,8.544
651.622,8.484
651.889,8.440
652.155,8.385
652.422,8.335
652.689,8.292
652.956,8.255
653.222,8.229
653.489,8.210
653.755,8.166
654.022,8.090
654.288,7.989
654.555,7.901
654.821,7.836
655.088,7.787
655.354,7.738
655.620,7.693
655.887,7.638
656.153,7.588
656.419,7.529
656.685,7.468
656.951,7.406
657.217,7.348
657.483,7.292
657.749,7.242
658.015,7.200
658.281,7.157
658.547,7.101
658.813,7.040
659.079,6.977
659.345,6.915
659.610,6.847
659.876,6.786
660.142,6.736
660.407,6.696
660.673,6.659
660.939,6.629
661.204,6.587
661.470,6.545
661.735,6.494
662.000,6.452
662.266,6.407
662.531,6.359
662.796,6.302
663.062,6.239
663.327,6.172
663.592,6.125
663.857,6.087
664.122,6.062
664.388,6.028
664.653,5.989
664.918,5.951
665.183,5.912
665.448,5.879
665.712,5.847
665.977,5.814
666.242,5.777
666.507,5.712
666.772,5.644
667.037,5.579
667.301,5.539
667.566,5.500
667.831,5.468
668.095,5.441
668.360,5.418
668.624,5.374
668.889,5.338
669.153,5.301
669.418,5.281
669.682,5.256
669.946,5.235
670.211,5.218
670.475,5.195
670.739,5.167
671.004,5.138
671.268,5.121
671.532,5.118
671.796,5.064
672.060,5.001
672.324,4.931
672.588,4.909
672.852,4.894
673.116,4.908
673.380,4.927
673.644,4.879
673.908,4.792
674.172,4.693
674.436,4.655
674.700,4.625
674.963,4.595
675.227,4.558
675.491,4.505
675.754,4.456
676.018,4.414
676.282,4.392
676.545,4.365
676.809,4.328
677.072,4.281
677.336,4.237
677.599,4.209
677.863,4.190
678.126,4.178
678.389,4.171
678.653,4.159
678.916,4.134
679.179,4.085
679.442,4.038
679.706,4.005
679.969,3.982
680.232,3.963
680.495,3.948
680.758,3.939
681.021,3.916
681.284,3.875
681.547,3.826
681.810,3.799
682.073,3.800
682.336,3.803
682.599,3.794
682.862,3.769
683.125,3.751
683.388,3.742
683.651,3.725
683.913,3.697
684.176,3.653
684.439,3.602
684.702,3.551
684.964,3.512
685.227,3.496
685.490,3.492
685.752,3.496
686.015,3.480
686.277,3.452
686.540,3.412
686.802,3.375
687.065,3.349
687.327,3.335
687.590,3.325
687.852,3.306
688.115,3.274
688.377,3.245
688.639,3.224
688.902,3.209
689.164,3.193
689.426,3.184
689.689,3.178
689.951,3.157
690.213,3.125
690.475,3.097
690.737,3.073
691.000,3.047
691.262,3.023
691.524,3.016
691.786,3.019
692.048,3.022
692.310,3.008
692.572,2.978
692.834,2.943
693.096,2.919
693.358,2.910
693.620,2.912
693.882,2.912
694.144,2.900
694.406,2.870
694.668,2.842
694.930,2.816
695.192,2.795
695.453,2.779
695.715,2.766
695.977,2.750
696.239,2.727
696.501,2.711
696.762,2.712
697.024,2.712
697.286,2.696
697.548,2.672
697.809,2.651
698.071,2.633
698.333,2.614
698.594,2.595
698.856,2.587
699.118,2.576
699.379,2.564
699.641,2.553
699.902,2.547
700.164,2.537
700.426,2.516
700.687,2.489
700.949,2.477
701.210,2.470
701.472,2.463
701.733,2.443
701.995,2.429
702.256,2.419
702.518,2.414
702.779,2.402
703.041,2.406
703.302,2.415
703.563,2.407
703.825,2.379
704.086,2.350
704.348,2.335
704.609,2.332
704.871,2.336
705.132,2.345
705.393,2.331
705.655,2.311
705.916,2.297
706.177,2.296
706.439,2.295
706.700,2.284
706.961,2.270
707.223,2.256
707.484,2.228
707.745,2.202
708.007,2.177
708.268,2.156
708.529,2.133
708.790,2.098
709.052,2.070
709.313,2.059
709.574,2.059
709.835,2.059
710.097,2.045
710.358,2.018
710.619,1.992
710.881,1.968
711.142,1.955
711.403,1.940
711.664,1.931
711.926,1.914
712.187,1.906
712.448,1.898
712.709,1.901
712.970,1.900
713.232,1.900
713.493,1.894
713.754,1.886
714.015,1.880
714.277,1.881
714.538,1.888
714.799,1.902
715.060,1.905
715.322,1.897
715.583,1.875
715.844,1.855
716.105,1.837
716.367,1.826
716.628,1.824
716.889,1.822
717.150,1.806
717.411,1.779
717.673,1.763
717.934,1.756
718.195,1.756
718.457,1.745
718.718,1.731
718.979,1.719
719.240,1.720
719.502,1.728
719.763,1.736
720.024,1.738
720.286,1.734
720.547,1.720
720.808,1.706
721.069,1.697
721.331,1.702
721.592,1.714
721.853,1.721
722.115,1.721
722.376,1.714
722.638,1.704
722.899,1.697
723.160,1.685
723.422,1.672
723.683,1.658
723.944,1.658
724.206,1.660
724.467,1.661
724.729,1.655
724.990,1.661
725.252,1.665
725.513,1.659
725.775,1.640
726.036,1.625
726.298,1.624
726.559,1.635
726.821,1.638
727.082,1.637
727.344,1.629
727.605,1.624
727.867,1.616
728.128,1.617
728.390,1.616
728.652,1.625
728.913,1.639
729.175,1.650
729.436,1.649
729.698,1.646
729.960,1.639
730.221,1.634
730.483,1.615
730.745,1.604
731.007,1.599
731.268,1.602
731.530,1.605
731.792,1.608
732.054,1.616
732.315,1.624
732.577,1.628
732.839,1.620
733.101,1.605
733.363,1.593
733.625,1.591
733.887,1.599
734.149,1.604
734.411,1.613
734.673,1.614
734.935,1.616
735.197,1.611
735.459,1.615
735.721,1.617
