Wavelength (nm),Intensity ββ9.1,,C:\Users\Brend\Desktop\LED Spectras v2\Blinds\-Interference\Spectrometer Data (Alt).sp,,,ββ9.1,
379.792,1.449,,2018-07-11 15:06:54,,Integration Time,100 ms,
380.000,1.447,,Analyze Light,,Number of Scans to Average,25,
380.209,1.448,,,,Smoothing,1,
380.418,1.456
380.627,1.467
380.837,1.476
381.048,1.482
381.259,1.486
381.471,1.488
381.683,1.493
381.896,1.500
382.110,1.503
382.324,1.510
382.538,1.520
382.753,1.528
382.969,1.520
383.185,1.504
383.402,1.493
383.619,1.499
383.837,1.512
384.055,1.530
384.274,1.543
384.493,1.549
384.712,1.551
384.932,1.554
385.153,1.558
385.374,1.563
385.596,1.567
385.818,1.581
386.040,1.595
386.263,1.605
386.487,1.604
386.710,1.600
386.935,1.596
387.159,1.598
387.385,1.598
387.610,1.598
387.836,1.600
388.063,1.604
388.289,1.609
388.517,1.612
388.744,1.611
388.972,1.615
389.201,1.621
389.430,1.630
389.659,1.634
389.889,1.638
390.119,1.641
390.349,1.641
390.580,1.642
390.811,1.643
391.042,1.647
391.274,1.653
391.507,1.659
391.739,1.663
391.972,1.663
392.205,1.666
392.439,1.673
392.673,1.680
392.907,1.685
393.142,1.689
393.377,1.693
393.612,1.696
393.848,1.698
394.084,1.704
394.320,1.708
394.557,1.712
394.794,1.714
395.031,1.723
395.269,1.729
395.507,1.734
395.745,1.733
395.983,1.736
396.222,1.742
396.461,1.752
396.700,1.764
396.940,1.772
397.180,1.775
397.420,1.771
397.660,1.765
397.901,1.759
398.142,1.761
398.383,1.762
398.625,1.764
398.866,1.772
399.108,1.786
399.351,1.804
399.593,1.807
399.836,1.804
400.079,1.799
400.322,1.802
400.566,1.803
400.809,1.801
401.053,1.797
401.298,1.796
401.542,1.802
401.787,1.810
402.031,1.818
402.277,1.824
402.522,1.827
402.767,1.832
403.013,1.833
403.259,1.836
403.505,1.835
403.752,1.836
403.998,1.841
404.245,1.855
404.492,1.868
404.739,1.876
404.986,1.876
405.234,1.877
405.482,1.877
405.730,1.875
405.978,1.874
406.226,1.872
406.475,1.870
406.723,1.873
406.972,1.880
407.221,1.890
407.470,1.894
407.720,1.897
407.969,1.898
408.219,1.905
408.469,1.914
408.719,1.921
408.969,1.922
409.219,1.923
409.470,1.924
409.720,1.928
409.971,1.931
410.222,1.941
410.473,1.949
410.724,1.954
410.976,1.956
411.227,1.960
411.479,1.964
411.731,1.968
411.983,1.969
412.235,1.973
412.487,1.972
412.740,1.975
412.992,1.979
413.245,1.985
413.497,1.984
413.750,1.978
414.003,1.971
414.257,1.964
414.510,1.963
414.763,1.968
415.017,1.975
415.270,1.977
415.524,1.972
415.778,1.965
416.032,1.963
416.286,1.970
416.540,1.980
416.794,1.990
417.049,1.992
417.303,1.992
417.558,1.996
417.812,2.000
418.067,2.003
418.322,2.006
418.577,2.007
418.832,2.009
419.088,2.006
419.343,2.004
419.598,1.996
419.854,1.993
420.109,1.994
420.365,2.007
420.621,2.017
420.876,2.026
421.132,2.026
421.388,2.024
421.645,2.018
421.901,2.018
422.157,2.021
422.413,2.028
422.670,2.028
422.926,2.028
423.183,2.025
423.439,2.031
423.696,2.040
423.953,2.059
424.210,2.078
424.467,2.088
424.724,2.092
424.981,2.089
425.238,2.095
425.495,2.110
425.753,2.125
426.010,2.141
426.267,2.153
426.525,2.177
426.782,2.200
427.040,2.225
427.298,2.250
427.555,2.280
427.813,2.303
428.071,2.325
428.329,2.347
428.587,2.376
428.845,2.409
429.103,2.449
429.361,2.487
429.619,2.528
429.878,2.571
430.136,2.624
430.394,2.677
430.653,2.742
430.911,2.811
431.170,2.884
431.428,2.947
431.687,3.013
431.946,3.083
432.204,3.166
432.463,3.251
432.722,3.345
432.981,3.440
433.240,3.544
433.499,3.653
433.758,3.773
434.017,3.887
434.276,4.006
434.535,4.122
434.794,4.246
435.053,4.374
435.312,4.520
435.572,4.672
435.831,4.842
436.090,5.015
436.350,5.205
436.609,5.387
436.869,5.575
437.128,5.767
437.388,5.978
437.647,6.203
437.907,6.438
438.166,6.668
438.426,6.905
438.686,7.142
438.946,7.400
439.205,7.670
439.465,7.956
439.725,8.254
439.985,8.563
440.245,8.868
440.505,9.191
440.765,9.519
441.025,9.871
441.285,10.222
441.545,10.594
441.805,10.981
442.065,11.388
442.325,11.815
442.585,12.276
442.846,12.758
443.106,13.262
443.366,13.777
443.626,14.313
443.887,14.870
444.147,15.469
444.407,16.096
444.668,16.765
444.928,17.444
445.189,18.173
445.449,18.915
445.710,19.705
445.970,20.516
446.231,21.382
446.491,22.282
446.752,23.223
447.012,24.192
447.273,25.191
447.534,26.220
447.794,27.285
448.055,28.378
448.316,29.524
448.577,30.716
448.837,31.958
449.098,33.224
449.359,34.501
449.620,35.784
449.881,37.076
450.142,38.375
450.403,39.697
450.664,41.042
450.924,42.396
451.185,43.736
451.446,45.063
451.707,46.379
451.969,47.685
452.230,48.963
452.491,50.208
452.752,51.406
453.013,52.551
453.274,53.628
453.535,54.639
453.796,55.568
454.058,56.403
454.319,57.155
454.580,57.824
454.841,58.416
455.103,58.895
455.364,59.265
455.625,59.559
455.887,59.782
456.148,59.915
456.409,59.941
456.671,59.840
456.932,59.620
457.194,59.279
457.455,58.854
457.716,58.334
457.978,57.741
458.239,57.073
458.501,56.367
458.763,55.592
459.024,54.737
459.286,53.804
459.547,52.840
459.809,51.826
460.071,50.771
460.332,49.689
460.594,48.613
460.856,47.551
461.117,46.474
461.379,45.401
461.641,44.318
461.903,43.246
462.164,42.187
462.426,41.159
462.688,40.154
462.950,39.170
463.212,38.224
463.474,37.312
463.736,36.439
463.998,35.608
464.260,34.817
464.522,34.085
464.784,33.376
465.046,32.708
465.308,32.071
465.570,31.466
465.832,30.890
466.094,30.353
466.356,29.840
466.618,29.339
466.880,28.819
467.142,28.305
467.405,27.807
467.667,27.350
467.929,26.905
468.191,26.467
468.454,26.026
468.716,25.599
468.978,25.148
469.241,24.681
469.503,24.216
469.765,23.773
470.028,23.341
470.290,22.915
470.552,22.495
470.815,22.084
471.077,21.670
471.340,21.260
471.602,20.843
471.865,20.419
472.128,19.991
472.390,19.569
472.653,19.148
472.915,18.722
473.178,18.297
473.441,17.889
473.703,17.472
473.966,17.045
474.229,16.609
474.492,16.186
474.755,15.759
475.017,15.347
475.280,14.951
475.543,14.584
475.806,14.201
476.069,13.807
476.332,13.416
476.595,13.053
476.858,12.698
477.121,12.344
477.384,11.996
477.647,11.677
477.910,11.372
478.173,11.069
478.436,10.759
478.699,10.467
478.962,10.195
479.226,9.943
479.489,9.692
479.752,9.447
480.015,9.202
480.279,8.967
480.542,8.734
480.805,8.509
481.069,8.278
481.332,8.068
481.595,7.863
481.859,7.687
482.122,7.501
482.386,7.329
482.649,7.152
482.913,6.985
483.177,6.812
483.440,6.640
483.704,6.473
483.967,6.328
484.231,6.185
484.495,6.049
484.759,5.905
485.022,5.768
485.286,5.624
485.550,5.485
485.814,5.338
486.078,5.205
486.342,5.073
486.606,4.963
486.869,4.852
487.133,4.740
487.397,4.617
487.662,4.495
487.926,4.373
488.190,4.266
488.454,4.155
488.718,4.057
488.982,3.948
489.246,3.852
489.511,3.744
489.775,3.642
490.039,3.541
490.304,3.450
490.568,3.361
490.832,3.278
491.097,3.196
491.361,3.122
491.626,3.043
491.890,2.971
492.155,2.900
492.419,2.837
492.684,2.773
492.949,2.713
493.213,2.655
493.478,2.599
493.743,2.541
494.008,2.479
494.272,2.419
494.537,2.373
494.802,2.330
495.067,2.292
495.332,2.255
495.597,2.224
495.862,2.187
496.127,2.148
496.392,2.105
496.657,2.066
496.922,2.028
497.187,2.000
497.452,1.976
497.718,1.960
497.983,1.937
498.248,1.915
498.513,1.887
498.779,1.874
499.044,1.863
499.310,1.847
499.575,1.820
499.841,1.797
500.106,1.780
500.372,1.765
500.637,1.748
500.903,1.737
501.168,1.726
501.434,1.713
501.700,1.693
501.966,1.675
502.231,1.656
502.497,1.639
502.763,1.621
503.029,1.606
503.295,1.596
503.561,1.591
503.827,1.588
504.093,1.579
504.359,1.564
504.625,1.548
504.891,1.527
505.157,1.508
505.423,1.489
505.690,1.476
505.956,1.467
506.222,1.462
506.489,1.463
506.755,1.466
507.021,1.466
507.288,1.463
507.554,1.453
507.821,1.444
508.087,1.436
508.354,1.437
508.621,1.435
508.887,1.429
509.154,1.415
509.421,1.403
509.687,1.393
509.954,1.387
510.221,1.385
510.488,1.385
510.755,1.389
511.022,1.392
511.289,1.388
511.556,1.380
511.823,1.372
512.090,1.373
512.357,1.371
512.624,1.368
512.891,1.361
513.159,1.351
513.426,1.344
513.693,1.343
513.960,1.347
514.228,1.347
514.495,1.339
514.763,1.331
515.030,1.322
515.298,1.316
515.565,1.313
515.833,1.314
516.100,1.313
516.368,1.312
516.636,1.311
516.904,1.307
517.171,1.301
517.439,1.291
517.707,1.283
517.975,1.278
518.243,1.280
518.511,1.280
518.779,1.274
519.047,1.270
519.315,1.271
519.583,1.271
519.851,1.266
520.119,1.259
520.387,1.254
520.656,1.254
520.924,1.257
521.192,1.264
521.461,1.267
521.729,1.271
521.997,1.270
522.266,1.267
522.534,1.264
522.803,1.263
523.071,1.263
523.340,1.257
523.609,1.250
523.877,1.245
524.146,1.242
524.415,1.240
524.684,1.240
524.952,1.240
525.221,1.239
525.490,1.241
525.759,1.245
526.028,1.248
526.297,1.241
526.566,1.236
526.835,1.233
527.104,1.239
527.373,1.242
527.642,1.240
527.912,1.231
528.181,1.221
528.450,1.218
528.719,1.223
528.989,1.234
529.258,1.242
529.528,1.240
529.797,1.235
530.067,1.230
530.336,1.226
530.606,1.217
530.875,1.206
531.145,1.201
531.414,1.206
531.684,1.214
531.954,1.222
532.224,1.223
532.493,1.215
532.763,1.208
533.033,1.206
533.303,1.210
533.573,1.212
533.843,1.208
534.113,1.203
534.383,1.194
534.653,1.192
534.923,1.194
535.193,1.204
535.463,1.212
535.733,1.216
536.004,1.215
536.274,1.210
536.544,1.200
536.814,1.193
537.085,1.188
537.355,1.195
537.626,1.204
537.896,1.209
538.166,1.207
538.437,1.204
538.707,1.201
538.978,1.201
539.249,1.203
539.519,1.202
539.790,1.194
540.061,1.187
540.331,1.191
540.602,1.199
540.873,1.207
541.144,1.211
541.414,1.212
541.685,1.211
541.956,1.207
542.227,1.205
542.498,1.200
542.769,1.198
543.040,1.198
543.311,1.202
543.582,1.206
543.853,1.210
544.124,1.213
544.396,1.216
544.667,1.215
544.938,1.210
545.209,1.198
545.480,1.193
545.752,1.193
546.023,1.193
546.294,1.188
546.566,1.183
546.837,1.185
547.109,1.189
547.380,1.190
547.652,1.187
547.923,1.185
548.195,1.190
548.466,1.198
548.738,1.205
549.009,1.202
549.281,1.197
549.553,1.188
549.824,1.178
550.096,1.172
550.368,1.173
550.640,1.179
550.911,1.185
551.183,1.193
551.455,1.205
551.727,1.213
551.999,1.211
552.271,1.200
552.543,1.191
552.815,1.188
553.087,1.191
553.359,1.193
553.631,1.196
553.903,1.196
554.175,1.198
554.447,1.199
554.719,1.198
554.991,1.195
555.263,1.193
555.535,1.190
555.808,1.186
556.080,1.182
556.352,1.183
556.624,1.183
556.897,1.183
557.169,1.183
557.441,1.183
557.714,1.184
557.986,1.183
558.258,1.182
558.531,1.186
558.803,1.187
559.076,1.188
559.348,1.179
559.621,1.173
559.893,1.169
560.166,1.170
560.438,1.172
560.711,1.169
560.983,1.170
561.256,1.174
561.528,1.183
561.801,1.191
562.074,1.197
562.346,1.203
562.619,1.206
562.892,1.203
563.164,1.199
563.437,1.198
563.710,1.200
563.983,1.196
564.255,1.190
564.528,1.189
564.801,1.191
565.074,1.190
565.346,1.183
565.619,1.182
565.892,1.184
566.165,1.186
566.438,1.183
566.711,1.178
566.984,1.174
567.257,1.174
567.529,1.179
567.802,1.191
568.075,1.198
568.348,1.198
568.621,1.194
568.894,1.192
569.167,1.190
569.440,1.186
569.713,1.180
569.986,1.177
570.259,1.173
570.532,1.175
570.805,1.180
571.078,1.185
571.351,1.188
571.625,1.188
571.898,1.184
572.171,1.180
572.444,1.176
572.717,1.180
572.990,1.183
573.263,1.182
573.536,1.172
573.809,1.164
574.083,1.163
574.356,1.169
574.629,1.175
574.902,1.180
575.175,1.180
575.448,1.178
575.721,1.175
575.995,1.172
576.268,1.168
576.541,1.168
576.814,1.175
577.087,1.181
577.361,1.182
577.634,1.176
577.907,1.167
578.180,1.158
578.453,1.155
578.727,1.155
579.000,1.159
579.273,1.165
579.546,1.175
579.820,1.186
580.093,1.189
580.366,1.184
580.639,1.175
580.913,1.166
581.186,1.164
581.459,1.162
581.732,1.155
582.005,1.148
582.279,1.143
582.552,1.149
582.825,1.157
583.098,1.165
583.372,1.169
583.645,1.170
583.918,1.171
584.191,1.169
584.464,1.168
584.738,1.169
585.011,1.169
585.284,1.166
585.557,1.163
585.831,1.164
586.104,1.175
586.377,1.187
586.650,1.191
586.923,1.187
587.196,1.179
587.470,1.172
587.743,1.168
588.016,1.168
588.289,1.174
588.562,1.179
588.835,1.180
589.109,1.174
589.382,1.164
589.655,1.153
589.928,1.146
590.201,1.144
590.474,1.154
590.747,1.166
591.020,1.177
591.293,1.178
591.567,1.174
591.840,1.164
592.113,1.155
592.386,1.145
592.659,1.138
592.932,1.137
593.205,1.145
593.478,1.155
593.751,1.159
594.024,1.158
594.297,1.155
594.570,1.157
594.843,1.165
595.116,1.175
595.389,1.178
595.662,1.174
595.934,1.166
596.207,1.164
596.480,1.169
596.753,1.176
597.026,1.180
597.299,1.179
597.572,1.176
597.844,1.169
598.117,1.159
598.390,1.153
598.663,1.152
598.936,1.155
599.208,1.155
599.481,1.155
599.754,1.154
600.026,1.150
600.299,1.146
600.572,1.147
600.844,1.149
601.117,1.146
601.390,1.144
601.662,1.145
601.935,1.146
602.207,1.146
602.480,1.147
602.752,1.148
603.025,1.145
603.297,1.141
603.570,1.145
603.842,1.155
604.115,1.164
604.387,1.167
604.660,1.161
604.932,1.155
605.204,1.154
605.477,1.160
605.749,1.165
606.021,1.173
606.294,1.176
606.566,1.169
606.838,1.159
607.110,1.154
607.383,1.157
607.655,1.161
607.927,1.167
608.199,1.173
608.471,1.178
608.743,1.176
609.015,1.169
609.287,1.164
609.559,1.162
609.831,1.164
610.103,1.162
610.375,1.158
610.647,1.150
610.919,1.148
611.191,1.151
611.463,1.157
611.735,1.159
612.007,1.155
612.278,1.150
612.550,1.150
612.822,1.156
613.094,1.161
613.365,1.164
613.637,1.165
613.909,1.169
614.180,1.173
614.452,1.172
614.723,1.165
614.995,1.158
615.266,1.159
615.538,1.166
615.809,1.171
616.081,1.166
616.352,1.157
616.623,1.148
616.895,1.143
617.166,1.140
617.437,1.141
617.709,1.145
617.980,1.151
618.251,1.154
618.522,1.157
618.793,1.166
619.065,1.178
619.336,1.182
619.607,1.176
619.878,1.172
620.149,1.175
620.420,1.177
620.691,1.174
620.962,1.172
621.232,1.172
621.503,1.166
621.774,1.159
622.045,1.154
622.316,1.159
622.586,1.164
622.857,1.170
623.128,1.174
623.398,1.175
623.669,1.172
623.940,1.163
624.210,1.155
624.481,1.155
624.751,1.159
625.021,1.162
625.292,1.159
625.562,1.159
625.833,1.155
626.103,1.150
626.373,1.145
626.643,1.145
626.914,1.148
627.184,1.154
627.454,1.155
627.724,1.153
627.994,1.150
628.264,1.149
628.534,1.148
628.804,1.150
629.074,1.154
629.344,1.159
629.614,1.159
629.884,1.155
630.154,1.151
630.424,1.150
630.693,1.147
630.963,1.140
631.233,1.131
631.502,1.127
631.772,1.131
632.041,1.141
632.311,1.148
632.581,1.150
632.850,1.148
633.119,1.142
633.389,1.137
633.658,1.136
633.928,1.141
634.197,1.147
634.466,1.154
634.735,1.158
635.004,1.156
635.274,1.152
635.543,1.147
635.812,1.149
636.081,1.151
636.350,1.150
636.619,1.150
636.888,1.152
637.157,1.156
637.426,1.159
637.694,1.158
637.963,1.159
638.232,1.158
638.501,1.155
638.769,1.153
639.038,1.155
639.307,1.166
639.575,1.169
639.844,1.163
640.112,1.151
640.381,1.141
640.649,1.139
640.917,1.138
641.186,1.142
641.454,1.146
641.722,1.148
641.991,1.145
642.259,1.136
642.527,1.133
642.795,1.135
643.063,1.136
643.331,1.136
643.599,1.136
643.867,1.142
644.135,1.146
644.403,1.151
644.671,1.154
644.939,1.156
645.206,1.156
645.474,1.155
645.742,1.153
646.009,1.148
646.277,1.145
646.545,1.145
646.812,1.152
647.080,1.159
647.347,1.162
647.615,1.159
647.882,1.151
648.149,1.144
648.417,1.141
648.684,1.143
648.951,1.148
649.219,1.150
649.486,1.148
649.753,1.142
650.020,1.132
650.287,1.126
650.554,1.122
650.821,1.123
651.088,1.126
651.355,1.132
651.622,1.140
651.889,1.148
652.155,1.147
652.422,1.148
652.689,1.153
652.956,1.159
653.222,1.168
653.489,1.174
653.755,1.174
654.022,1.161
654.288,1.148
654.555,1.141
654.821,1.143
655.088,1.147
655.354,1.154
655.620,1.161
655.887,1.163
656.153,1.164
656.419,1.162
656.685,1.159
656.951,1.155
657.217,1.151
657.483,1.148
657.749,1.145
658.015,1.144
658.281,1.143
658.547,1.140
658.813,1.135
659.079,1.131
659.345,1.131
659.610,1.135
659.876,1.141
660.142,1.148
660.407,1.151
660.673,1.154
660.939,1.157
661.204,1.155
661.470,1.149
661.735,1.145
662.000,1.144
662.266,1.141
662.531,1.136
662.796,1.133
663.062,1.133
663.327,1.136
663.592,1.140
663.857,1.142
664.122,1.143
664.388,1.141
664.653,1.144
664.918,1.146
665.183,1.149
665.448,1.150
665.712,1.152
665.977,1.154
666.242,1.151
666.507,1.142
666.772,1.132
667.037,1.127
667.301,1.127
667.566,1.129
667.831,1.129
668.095,1.133
668.360,1.136
668.624,1.139
668.889,1.141
669.153,1.140
669.418,1.141
669.682,1.139
669.946,1.140
670.211,1.142
670.475,1.150
670.739,1.160
671.004,1.170
671.268,1.185
671.532,1.196
671.796,1.188
672.060,1.172
672.324,1.161
672.588,1.165
672.852,1.175
673.116,1.199
673.380,1.219
673.644,1.212
673.908,1.182
674.172,1.153
674.436,1.146
674.700,1.146
674.963,1.149
675.227,1.149
675.491,1.141
675.754,1.134
676.018,1.129
676.282,1.135
676.545,1.137
676.809,1.137
677.072,1.136
677.336,1.137
677.599,1.138
677.863,1.134
678.126,1.131
678.389,1.135
678.653,1.141
678.916,1.142
679.179,1.140
679.442,1.140
679.706,1.141
679.969,1.141
680.232,1.141
680.495,1.143
680.758,1.145
681.021,1.142
681.284,1.140
681.547,1.141
681.810,1.149
682.073,1.161
682.336,1.166
682.599,1.166
682.862,1.160
683.125,1.158
683.388,1.159
683.651,1.159
683.913,1.157
684.176,1.149
684.439,1.137
684.702,1.124
684.964,1.120
685.227,1.126
685.490,1.136
685.752,1.145
686.015,1.147
686.277,1.145
686.540,1.139
686.802,1.136
687.065,1.136
687.327,1.141
687.590,1.144
687.852,1.140
688.115,1.134
688.377,1.132
688.639,1.134
688.902,1.136
689.164,1.138
689.426,1.145
689.689,1.150
689.951,1.147
690.213,1.143
690.475,1.143
690.737,1.145
691.000,1.141
691.262,1.134
691.524,1.136
691.786,1.147
692.048,1.158
692.310,1.155
692.572,1.142
692.834,1.130
693.096,1.127
693.358,1.135
693.620,1.144
693.882,1.151
694.144,1.155
694.406,1.154
694.668,1.151
694.930,1.150
695.192,1.149
695.453,1.149
695.715,1.145
695.977,1.142
696.239,1.133
696.501,1.129
696.762,1.132
697.024,1.138
697.286,1.137
697.548,1.134
697.809,1.131
698.071,1.131
698.333,1.131
698.594,1.135
698.856,1.141
699.118,1.146
699.379,1.148
699.641,1.150
699.902,1.153
700.164,1.150
700.426,1.142
700.687,1.133
700.949,1.130
701.210,1.129
701.472,1.128
701.733,1.123
701.995,1.123
702.256,1.127
702.518,1.132
702.779,1.136
703.041,1.145
703.302,1.154
703.563,1.153
703.825,1.145
704.086,1.137
704.348,1.131
704.609,1.128
704.871,1.130
705.132,1.135
705.393,1.133
705.655,1.131
705.916,1.129
706.177,1.128
706.439,1.127
706.700,1.125
706.961,1.128
707.223,1.127
707.484,1.120
707.745,1.112
708.007,1.105
708.268,1.101
708.529,1.096
708.790,1.088
709.052,1.083
709.313,1.080
709.574,1.082
709.835,1.084
710.097,1.082
710.358,1.074
710.619,1.066
710.881,1.060
711.142,1.056
711.403,1.052
711.664,1.052
711.926,1.054
712.187,1.060
712.448,1.064
712.709,1.070
712.970,1.072
713.232,1.074
713.493,1.073
713.754,1.070
714.015,1.068
714.277,1.066
714.538,1.072
714.799,1.084
715.060,1.093
715.322,1.094
715.583,1.092
715.844,1.088
716.105,1.084
716.367,1.076
716.628,1.073
716.889,1.070
717.150,1.067
717.411,1.062
717.673,1.061
717.934,1.066
718.195,1.072
718.457,1.074
718.718,1.072
718.979,1.071
719.240,1.073
719.502,1.079
719.763,1.081
720.024,1.083
720.286,1.083
720.547,1.081
720.808,1.077
721.069,1.074
721.331,1.077
721.592,1.083
721.853,1.085
722.115,1.086
722.376,1.086
722.638,1.084
722.899,1.078
723.160,1.070
723.422,1.062
723.683,1.060
723.944,1.063
724.206,1.068
724.467,1.068
724.729,1.065
724.990,1.067
725.252,1.069
725.513,1.067
725.775,1.062
726.036,1.060
726.298,1.063
726.559,1.065
726.821,1.065
727.082,1.063
727.344,1.060
727.605,1.056
727.867,1.051
728.128,1.051
728.390,1.054
728.652,1.064
728.913,1.072
729.175,1.074
729.436,1.076
729.698,1.076
729.960,1.073
730.221,1.065
730.483,1.060
730.745,1.061
731.007,1.064
731.268,1.067
731.530,1.069
731.792,1.073
732.054,1.076
732.315,1.079
732.577,1.080
732.839,1.075
733.101,1.067
733.363,1.058
733.625,1.056
733.887,1.057
734.149,1.061
734.411,1.065
734.673,1.067
734.935,1.069
735.197,1.069
735.459,1.073
735.721,1.078
735.983,1.076
736.245,1.070
736.507,1.067
736.769,1.070
737.031,1.073
737.293,1.069
737.555,1.062
737.818,1.058
738.080,1.058
738.342,1.061
738.604,1.064
738.867,1.064
739.129,1.060
739.391,1.056
739.654,1.052
739.916,1.052
740.178,1.057
740.441,1.064
740.703,1.068
740.966,1.065
741.228,1.062
741.491,1.060
741.753,1.063
742.016,1.064
742.278,1.065
742.541,1.065
742.804,1.066
743.066,1.071
743.329,1.072
743.592,1.069
743.854,1.065
744.117,1.065
744.380,1.068
744.643,1.069
744.905,1.067
745.168,1.065
745.431,1.064
745.694,1.059
745.957,1.052
746.220,1.046
746.483,1.046
746.746,1.051
747.009,1.066
747.272,1.083
747.535,1.094
