Wavelength (nm),Intensity B10.1,,C:/Users/Brend/Desktop/LED Spectras v2/Blinds/-Interference/Spectrometer Data (Newer).sp,,,B10.1,
379.792,1.589,,2018-07-02 14:40:34,,Integration Time,100 ms,
380.000,1.571,,Analyze Light,,Number of Scans to Average,25,
380.209,1.563,,,,Smoothing,0,
380.418,1.565
380.627,1.576
380.837,1.581
381.048,1.599
381.259,1.604
381.471,1.597
381.683,1.602
381.896,1.595
382.110,1.600
382.324,1.607
382.538,1.630
382.753,1.648
382.969,1.643
383.185,1.625
383.402,1.615
383.619,1.613
383.837,1.617
384.055,1.628
384.274,1.649
384.493,1.661
384.712,1.652
384.932,1.646
385.153,1.652
385.374,1.652
385.596,1.654
385.818,1.657
386.040,1.677
386.263,1.691
386.487,1.688
386.710,1.680
386.935,1.680
387.159,1.669
387.385,1.669
387.610,1.665
387.836,1.665
388.063,1.665
388.289,1.678
388.517,1.670
388.744,1.669
388.972,1.674
389.201,1.696
389.430,1.691
389.659,1.698
389.889,1.701
390.119,1.711
390.349,1.718
390.580,1.714
390.811,1.722
391.042,1.724
391.274,1.719
391.507,1.726
391.739,1.729
391.972,1.727
392.205,1.721
392.439,1.711
392.673,1.721
392.907,1.735
393.142,1.742
393.377,1.744
393.612,1.755
393.848,1.765
394.084,1.761
394.320,1.768
394.557,1.771
394.794,1.786
395.031,1.781
395.269,1.786
395.507,1.801
395.745,1.796
395.983,1.791
396.222,1.792
396.461,1.801
396.700,1.815
396.940,1.832
397.180,1.823
397.420,1.820
397.660,1.817
397.901,1.812
398.142,1.805
398.383,1.802
398.625,1.794
398.866,1.805
399.108,1.832
399.351,1.854
399.593,1.867
399.836,1.846
400.079,1.835
400.322,1.838
400.566,1.825
400.809,1.822
401.053,1.822
401.298,1.823
401.542,1.822
401.787,1.838
402.031,1.856
402.277,1.849
402.522,1.864
402.767,1.861
403.013,1.856
403.259,1.840
403.505,1.846
403.752,1.849
403.998,1.856
404.245,1.864
404.492,1.888
404.739,1.893
404.986,1.900
405.234,1.908
405.482,1.913
405.730,1.916
405.978,1.916
406.226,1.916
406.475,1.898
406.723,1.898
406.972,1.911
407.221,1.910
407.470,1.915
407.720,1.923
407.969,1.919
408.219,1.900
408.469,1.908
408.719,1.923
408.969,1.926
409.219,1.931
409.470,1.944
409.720,1.942
409.971,1.949
410.222,1.957
410.473,1.965
410.724,1.955
410.976,1.950
411.227,1.960
411.479,1.970
411.731,1.952
411.983,1.945
412.235,1.950
412.487,1.967
412.740,1.965
412.992,1.978
413.245,1.980
413.497,1.985
413.750,1.980
414.003,1.985
414.257,1.976
414.510,1.965
414.763,1.970
415.017,1.985
415.270,1.985
415.524,1.989
415.778,1.986
416.032,1.989
416.286,1.994
416.540,2.004
416.794,2.004
417.049,2.004
417.303,1.994
417.558,1.999
417.812,2.009
418.067,1.996
418.322,1.996
418.577,2.006
418.832,2.001
419.088,1.993
419.343,1.991
419.598,2.001
419.854,1.988
420.109,1.999
420.365,2.006
420.621,2.006
420.876,2.004
421.132,2.012
421.388,2.007
421.645,2.009
421.901,2.011
422.157,2.032
422.413,2.033
422.670,2.033
422.926,2.030
423.183,2.032
423.439,2.028
423.696,2.056
423.953,2.077
424.210,2.097
424.467,2.103
424.724,2.084
424.981,2.084
425.238,2.074
425.495,2.085
425.753,2.129
426.010,2.141
426.267,2.139
426.525,2.142
426.782,2.167
427.040,2.190
427.298,2.216
427.555,2.237
427.813,2.265
428.071,2.269
428.329,2.300
428.587,2.331
428.845,2.354
429.103,2.398
429.361,2.437
429.619,2.463
429.878,2.499
430.136,2.543
430.394,2.600
430.653,2.649
430.911,2.733
431.170,2.794
431.428,2.846
431.687,2.903
431.946,2.978
432.204,3.026
432.463,3.127
432.722,3.223
432.981,3.292
433.240,3.370
433.499,3.486
433.758,3.590
434.017,3.720
434.276,3.831
434.535,3.945
434.794,4.060
435.053,4.197
435.312,4.334
435.572,4.495
435.831,4.661
436.090,4.845
436.350,5.019
436.609,5.193
436.869,5.369
437.128,5.574
437.388,5.771
437.647,5.972
437.907,6.188
438.166,6.435
438.426,6.629
438.686,6.877
438.946,7.127
439.205,7.391
439.465,7.640
439.725,7.953
439.985,8.231
440.245,8.544
440.505,8.840
440.765,9.161
441.025,9.508
441.285,9.848
441.545,10.191
441.805,10.545
442.065,10.926
442.325,11.339
442.585,11.753
442.846,12.202
443.106,12.671
443.366,13.179
443.626,13.688
443.887,14.237
444.147,14.784
444.407,15.373
444.668,15.971
444.928,16.611
445.189,17.281
445.449,17.983
445.710,18.672
445.970,19.437
446.231,20.228
446.491,21.089
446.752,21.970
447.012,22.859
447.273,23.788
447.534,24.757
447.794,25.753
448.055,26.740
448.316,27.767
448.577,28.915
448.837,30.079
449.098,31.248
449.359,32.433
449.620,33.696
449.881,34.899
450.142,36.081
450.403,37.260
450.664,38.530
450.924,39.863
451.185,41.162
451.446,42.439
451.707,43.679
451.969,44.869
452.230,46.074
452.491,47.217
452.752,48.274
453.013,49.265
453.274,50.219
453.535,51.108
453.796,51.963
454.058,52.697
454.319,53.366
454.580,53.939
454.841,54.406
455.103,54.743
455.364,54.935
455.625,54.991
455.887,54.997
456.148,54.960
456.409,54.786
456.671,54.512
456.932,54.120
457.194,53.610
457.455,53.022
457.716,52.347
457.978,51.560
458.239,50.756
458.501,49.866
458.763,48.941
459.024,47.935
459.286,46.893
459.547,45.827
459.809,44.713
460.071,43.526
460.332,42.346
460.594,41.231
460.856,40.111
461.117,39.026
461.379,37.936
461.641,36.899
461.903,35.867
462.164,34.891
462.426,33.884
462.688,32.977
462.950,32.101
463.212,31.290
463.474,30.492
463.736,29.740
463.998,28.975
464.260,28.322
464.522,27.692
464.784,27.121
465.046,26.592
465.308,26.068
465.570,25.582
465.832,25.115
466.094,24.650
466.356,24.260
466.618,23.842
466.880,23.455
467.142,23.053
467.405,22.698
467.667,22.344
467.929,22.053
468.191,21.703
468.454,21.361
468.716,21.037
468.978,20.716
469.241,20.326
469.503,19.915
469.765,19.578
470.028,19.248
470.290,18.886
470.552,18.546
470.815,18.203
471.077,17.856
471.340,17.486
471.602,17.114
471.865,16.759
472.128,16.381
472.390,15.985
472.653,15.609
472.915,15.215
473.178,14.873
473.441,14.532
473.703,14.168
473.966,13.765
474.229,13.394
474.492,13.031
474.755,12.651
475.017,12.249
475.280,11.948
475.543,11.621
475.806,11.321
476.069,10.987
476.332,10.655
476.595,10.339
476.858,10.050
477.121,9.753
477.384,9.447
477.647,9.171
477.910,8.928
478.173,8.667
478.436,8.422
478.699,8.168
478.962,7.974
479.226,7.757
479.489,7.556
479.752,7.349
480.015,7.197
480.279,7.005
480.542,6.841
480.805,6.655
481.069,6.509
481.332,6.341
481.595,6.183
481.859,6.017
482.122,5.928
482.386,5.786
482.649,5.648
482.913,5.516
483.177,5.394
483.440,5.247
483.704,5.135
483.967,5.031
484.231,4.956
484.495,4.827
484.759,4.733
485.022,4.619
485.286,4.492
485.550,4.361
485.814,4.285
486.078,4.143
486.342,4.052
486.606,3.954
486.869,3.880
487.133,3.796
487.397,3.728
487.662,3.645
487.926,3.567
488.190,3.477
488.454,3.396
488.718,3.298
488.982,3.233
489.246,3.137
489.511,3.075
489.775,2.994
490.039,2.934
490.304,2.875
490.568,2.799
490.832,2.716
491.097,2.670
491.361,2.623
491.626,2.577
491.890,2.519
492.155,2.478
492.419,2.426
492.684,2.392
492.949,2.331
493.213,2.291
493.478,2.265
493.743,2.230
494.008,2.173
494.272,2.126
494.537,2.094
494.802,2.076
495.067,2.063
495.332,2.048
495.597,2.025
495.862,2.004
496.127,1.975
496.392,1.952
496.657,1.929
496.922,1.900
497.187,1.879
497.452,1.879
497.718,1.867
497.983,1.872
498.248,1.845
498.513,1.827
498.779,1.814
499.044,1.810
499.310,1.794
499.575,1.761
499.841,1.752
500.106,1.750
500.372,1.731
500.637,1.706
500.903,1.711
501.168,1.722
501.434,1.709
501.700,1.688
501.966,1.665
502.231,1.669
502.497,1.662
502.763,1.652
503.029,1.631
503.295,1.615
503.561,1.610
503.827,1.599
504.093,1.594
504.359,1.589
504.625,1.591
504.891,1.587
505.157,1.576
505.423,1.568
505.690,1.543
505.956,1.519
506.222,1.521
506.489,1.540
506.755,1.568
507.021,1.569
507.288,1.568
507.554,1.561
507.821,1.545
508.087,1.532
508.354,1.525
508.621,1.530
508.887,1.506
509.154,1.488
509.421,1.495
509.687,1.490
509.954,1.462
510.221,1.480
510.488,1.475
510.755,1.475
511.022,1.468
511.289,1.459
511.556,1.447
511.823,1.455
512.090,1.460
512.357,1.465
512.624,1.459
512.891,1.457
513.159,1.449
513.426,1.433
513.693,1.426
513.960,1.426
514.228,1.413
514.495,1.421
514.763,1.415
515.030,1.415
515.298,1.415
515.565,1.407
515.833,1.421
516.100,1.423
516.368,1.416
516.636,1.408
516.904,1.400
517.171,1.410
517.439,1.413
517.707,1.408
517.975,1.397
518.243,1.398
518.511,1.402
518.779,1.387
519.047,1.374
519.315,1.400
519.583,1.395
519.851,1.368
520.119,1.359
520.387,1.372
520.656,1.368
520.924,1.364
521.192,1.366
521.461,1.371
521.729,1.372
521.997,1.376
522.266,1.374
522.534,1.377
522.803,1.368
523.071,1.371
523.340,1.368
523.609,1.358
523.877,1.356
524.146,1.358
524.415,1.354
524.684,1.351
524.952,1.354
525.221,1.350
525.490,1.356
525.759,1.376
526.028,1.369
526.297,1.358
526.566,1.338
526.835,1.338
527.104,1.341
527.373,1.353
527.642,1.366
527.912,1.356
528.181,1.348
528.450,1.348
528.719,1.351
528.989,1.354
529.258,1.366
529.528,1.369
529.797,1.354
530.067,1.341
530.336,1.341
530.606,1.333
530.875,1.335
531.145,1.325
531.414,1.324
531.684,1.340
531.954,1.350
532.224,1.341
532.493,1.333
532.763,1.322
533.033,1.324
533.303,1.327
533.573,1.335
533.843,1.330
534.113,1.311
534.383,1.304
534.653,1.306
534.923,1.319
535.193,1.330
535.463,1.328
535.733,1.346
536.004,1.346
536.274,1.337
536.544,1.338
536.814,1.327
537.085,1.314
537.355,1.317
537.626,1.328
537.896,1.330
538.166,1.325
538.437,1.317
538.707,1.309
538.978,1.311
539.249,1.324
539.519,1.333
539.790,1.330
540.061,1.312
540.331,1.314
540.602,1.333
540.873,1.340
541.144,1.335
541.414,1.340
541.685,1.335
541.956,1.328
542.227,1.328
542.498,1.322
542.769,1.315
543.040,1.319
543.311,1.325
543.582,1.333
543.853,1.333
544.124,1.333
544.396,1.345
544.667,1.341
544.938,1.341
545.209,1.337
545.480,1.314
545.752,1.319
546.023,1.324
546.294,1.325
546.566,1.317
546.837,1.317
547.109,1.314
547.380,1.312
547.652,1.312
547.923,1.309
548.195,1.317
548.466,1.333
548.738,1.343
549.009,1.348
549.281,1.322
549.553,1.315
549.824,1.312
550.096,1.302
550.368,1.309
550.640,1.324
550.911,1.327
551.183,1.328
551.455,1.351
551.727,1.366
551.999,1.353
552.271,1.330
552.543,1.317
552.815,1.314
553.087,1.314
553.359,1.332
553.631,1.328
553.903,1.324
554.175,1.327
554.447,1.341
554.719,1.345
554.991,1.340
555.263,1.338
555.535,1.330
555.808,1.322
556.080,1.324
556.352,1.312
556.624,1.306
556.897,1.306
557.169,1.302
557.441,1.299
557.714,1.296
557.986,1.296
558.258,1.299
558.531,1.294
558.803,1.309
559.076,1.317
559.348,1.315
559.621,1.311
559.893,1.306
560.166,1.314
560.438,1.309
560.711,1.301
560.983,1.294
561.256,1.298
561.528,1.312
561.801,1.330
562.074,1.325
562.346,1.335
562.619,1.350
562.892,1.346
563.164,1.330
563.437,1.322
563.710,1.330
563.983,1.327
564.255,1.307
564.528,1.309
564.801,1.332
565.074,1.341
565.346,1.325
565.619,1.319
565.892,1.328
566.165,1.324
566.438,1.307
566.711,1.304
566.984,1.311
567.257,1.307
567.529,1.309
567.802,1.324
568.075,1.337
568.348,1.328
568.621,1.320
568.894,1.324
569.167,1.317
569.440,1.315
569.713,1.302
569.986,1.288
570.259,1.298
570.532,1.293
570.805,1.298
571.078,1.309
571.351,1.309
571.625,1.312
571.898,1.320
572.171,1.306
572.444,1.298
572.717,1.309
572.990,1.325
573.263,1.330
573.536,1.307
573.809,1.291
574.083,1.273
574.356,1.280
574.629,1.296
574.902,1.317
575.175,1.319
575.448,1.311
575.721,1.298
575.995,1.299
576.268,1.299
576.541,1.299
576.814,1.309
577.087,1.317
577.361,1.315
577.634,1.307
577.907,1.302
578.180,1.289
578.453,1.281
578.727,1.291
579.000,1.291
579.273,1.294
579.546,1.299
579.820,1.312
580.093,1.315
580.366,1.307
580.639,1.296
580.913,1.293
581.186,1.301
581.459,1.296
581.732,1.304
582.005,1.288
582.279,1.278
582.552,1.268
582.825,1.283
583.098,1.294
583.372,1.296
583.645,1.301
583.918,1.307
584.191,1.299
584.464,1.298
584.738,1.291
585.011,1.286
585.284,1.278
585.557,1.280
585.831,1.291
586.104,1.298
586.377,1.309
586.650,1.335
586.923,1.330
587.196,1.314
587.470,1.311
587.743,1.309
588.016,1.306
588.289,1.307
588.562,1.317
588.835,1.324
589.109,1.309
589.382,1.293
589.655,1.284
589.928,1.288
590.201,1.294
590.474,1.301
590.747,1.312
591.020,1.314
591.293,1.319
591.567,1.320
591.840,1.309
592.113,1.304
592.386,1.301
592.659,1.288
592.932,1.278
593.205,1.286
593.478,1.296
593.751,1.296
594.024,1.291
594.297,1.281
594.570,1.270
594.843,1.288
595.116,1.296
595.389,1.291
595.662,1.286
595.934,1.286
596.207,1.304
596.480,1.320
596.753,1.327
597.026,1.317
597.299,1.309
597.572,1.307
597.844,1.304
598.117,1.296
598.390,1.284
598.663,1.284
598.936,1.281
599.208,1.289
599.481,1.294
599.754,1.299
600.026,1.296
600.299,1.286
600.572,1.286
600.844,1.294
601.117,1.286
601.390,1.271
601.662,1.284
601.935,1.275
602.207,1.267
602.480,1.278
602.752,1.288
603.025,1.276
603.297,1.268
603.570,1.271
603.842,1.286
604.115,1.298
604.387,1.306
604.660,1.315
604.932,1.301
605.204,1.298
605.477,1.306
605.749,1.320
606.021,1.322
606.294,1.324
606.566,1.312
606.838,1.299
607.110,1.304
607.383,1.304
607.655,1.301
607.927,1.301
608.199,1.301
608.471,1.299
608.743,1.296
609.015,1.288
609.287,1.273
609.559,1.275
609.831,1.280
610.103,1.275
610.375,1.268
610.647,1.276
610.919,1.275
611.191,1.267
611.463,1.289
611.735,1.301
612.007,1.301
612.278,1.293
612.550,1.291
612.822,1.289
613.094,1.289
613.365,1.293
613.637,1.289
613.909,1.298
614.180,1.299
614.452,1.306
614.723,1.306
614.995,1.293
615.266,1.288
615.538,1.302
615.809,1.314
616.081,1.306
616.352,1.288
616.623,1.283
616.895,1.286
617.166,1.286
617.437,1.275
617.709,1.283
617.980,1.294
618.251,1.302
618.522,1.301
618.793,1.304
619.065,1.325
619.336,1.333
619.607,1.294
619.878,1.284
620.149,1.293
620.420,1.298
620.691,1.289
620.962,1.288
621.232,1.306
621.503,1.307
621.774,1.288
622.045,1.283
622.316,1.286
622.586,1.306
622.857,1.311
623.128,1.315
623.398,1.311
623.669,1.312
623.940,1.309
624.210,1.284
624.481,1.284
624.751,1.298
625.021,1.289
625.292,1.291
625.562,1.296
625.833,1.289
626.103,1.281
626.373,1.286
626.643,1.284
626.914,1.289
627.184,1.296
627.454,1.304
627.724,1.307
627.994,1.304
628.264,1.299
628.534,1.288
628.804,1.281
629.074,1.291
629.344,1.298
629.614,1.293
629.884,1.284
630.154,1.275
630.424,1.267
630.693,1.258
630.963,1.252
631.233,1.252
631.502,1.257
631.772,1.263
632.041,1.278
632.311,1.286
632.581,1.291
632.850,1.291
633.119,1.286
633.389,1.276
633.658,1.271
633.928,1.268
634.197,1.276
634.466,1.284
634.735,1.289
635.004,1.294
635.274,1.283
635.543,1.276
635.812,1.275
636.081,1.270
636.350,1.260
636.619,1.268
636.888,1.276
637.157,1.280
637.426,1.278
637.694,1.291
637.963,1.291
638.232,1.291
638.501,1.293
638.769,1.286
639.038,1.298
639.307,1.294
639.575,1.301
639.844,1.301
640.112,1.284
640.381,1.286
640.649,1.278
640.917,1.281
641.186,1.289
641.454,1.293
641.722,1.301
641.991,1.293
642.259,1.289
642.527,1.280
642.795,1.289
643.063,1.293
643.331,1.275
643.599,1.278
643.867,1.283
644.135,1.271
644.403,1.268
644.671,1.286
644.939,1.283
645.206,1.289
645.474,1.291
645.742,1.289
646.009,1.284
646.277,1.273
646.545,1.271
646.812,1.276
647.080,1.298
647.347,1.309
647.615,1.304
647.882,1.294
648.149,1.280
648.417,1.278
648.684,1.278
648.951,1.284
649.219,1.293
649.486,1.293
649.753,1.280
650.020,1.278
650.287,1.273
650.554,1.265
650.821,1.271
651.088,1.270
651.355,1.276
651.622,1.296
651.889,1.289
652.155,1.293
652.422,1.283
652.689,1.278
652.956,1.291
653.222,1.291
653.489,1.299
653.755,1.320
654.022,1.309
654.288,1.294
654.555,1.288
654.821,1.289
655.088,1.291
655.354,1.294
655.620,1.293
655.887,1.302
656.153,1.301
656.419,1.299
656.685,1.293
656.951,1.299
657.217,1.296
657.483,1.289
657.749,1.278
658.015,1.284
658.281,1.288
658.547,1.286
658.813,1.281
659.079,1.273
659.345,1.271
659.610,1.265
659.876,1.260
660.142,1.260
660.407,1.258
660.673,1.265
660.939,1.284
661.204,1.284
661.470,1.265
661.735,1.263
662.000,1.276
662.266,1.281
662.531,1.275
662.796,1.280
663.062,1.276
663.327,1.267
663.592,1.258
663.857,1.263
664.122,1.263
664.388,1.271
664.653,1.265
664.918,1.273
665.183,1.278
665.448,1.280
665.712,1.291
665.977,1.296
666.242,1.299
666.507,1.284
666.772,1.254
667.037,1.260
667.301,1.268
667.566,1.265
667.831,1.267
668.095,1.267
668.360,1.263
668.624,1.270
668.889,1.263
669.153,1.276
669.418,1.276
669.682,1.283
669.946,1.280
670.211,1.276
670.475,1.293
670.739,1.298
671.004,1.304
671.268,1.320
671.532,1.353
671.796,1.353
672.060,1.296
672.324,1.301
672.588,1.309
672.852,1.317
673.116,1.338
673.380,1.389
673.644,1.381
673.908,1.301
674.172,1.284
674.436,1.289
674.700,1.299
674.963,1.289
675.227,1.291
675.491,1.291
675.754,1.281
676.018,1.280
676.282,1.276
676.545,1.281
676.809,1.276
677.072,1.263
677.336,1.268
677.599,1.275
677.863,1.281
678.126,1.280
678.389,1.284
678.653,1.294
678.916,1.294
679.179,1.284
679.442,1.278
679.706,1.278
679.969,1.278
680.232,1.267
680.495,1.280
680.758,1.306
681.021,1.306
681.284,1.283
681.547,1.265
681.810,1.271
682.073,1.293
682.336,1.315
682.599,1.302
682.862,1.289
683.125,1.294
683.388,1.294
683.651,1.298
683.913,1.293
684.176,1.281
684.439,1.278
684.702,1.263
684.964,1.252
685.227,1.255
685.490,1.267
685.752,1.284
686.015,1.294
686.277,1.283
686.540,1.278
686.802,1.275
687.065,1.273
687.327,1.280
687.590,1.286
687.852,1.280
688.115,1.262
688.377,1.254
688.639,1.265
688.902,1.268
689.164,1.273
689.426,1.280
689.689,1.283
689.951,1.286
690.213,1.278
690.475,1.280
690.737,1.291
691.000,1.284
691.262,1.284
691.524,1.283
691.786,1.296
692.048,1.312
692.310,1.304
692.572,1.278
692.834,1.260
693.096,1.250
693.358,1.270
693.620,1.288
693.882,1.299
694.144,1.299
694.406,1.288
694.668,1.280
694.930,1.280
695.192,1.283
695.453,1.286
695.715,1.296
695.977,1.298
696.239,1.283
696.501,1.283
696.762,1.288
697.024,1.294
697.286,1.281
697.548,1.267
697.809,1.271
698.071,1.271
698.333,1.268
698.594,1.270
698.856,1.275
699.118,1.278
699.379,1.280
699.641,1.278
699.902,1.304
700.164,1.296
700.426,1.284
700.687,1.278
700.949,1.278
701.210,1.273
701.472,1.275
701.733,1.271
701.995,1.267
702.256,1.275
702.518,1.278
702.779,1.271
703.041,1.275
703.302,1.299
703.563,1.296
703.825,1.273
704.086,1.275
704.348,1.276
704.609,1.271
704.871,1.271
705.132,1.278
705.393,1.278
705.655,1.267
705.916,1.278
706.177,1.283
706.439,1.276
706.700,1.280
706.961,1.276
707.223,1.271
707.484,1.275
707.745,1.249
708.007,1.247
708.268,1.239
708.529,1.231
708.790,1.231
709.052,1.223
709.313,1.221
709.574,1.236
709.835,1.245
710.097,1.234
710.358,1.226
710.619,1.216
710.881,1.200
711.142,1.197
711.403,1.193
711.664,1.192
711.926,1.201
712.187,1.195
712.448,1.210
712.709,1.211
712.970,1.213
713.232,1.219
713.493,1.216
713.754,1.214
714.015,1.213
714.277,1.221
714.538,1.232
714.799,1.237
715.060,1.254
715.322,1.250
715.583,1.244
715.844,1.237
716.105,1.229
716.367,1.221
716.628,1.223
716.889,1.216
717.150,1.211
717.411,1.201
717.673,1.200
717.934,1.214
718.195,1.228
718.457,1.228
718.718,1.214
718.979,1.208
719.240,1.216
719.502,1.229
719.763,1.234
720.024,1.232
720.286,1.226
720.547,1.231
720.808,1.226
721.069,1.229
721.331,1.226
721.592,1.234
721.853,1.232
722.115,1.237
722.376,1.241
722.638,1.236
722.899,1.228
723.160,1.226
723.422,1.219
723.683,1.214
723.944,1.223
724.206,1.228
724.467,1.219
724.729,1.219
724.990,1.221
725.252,1.237
725.513,1.239
725.775,1.221
726.036,1.203
726.298,1.200
726.559,1.208
726.821,1.210
727.082,1.210
727.344,1.203
727.605,1.200
727.867,1.205
728.128,1.208
728.390,1.216
728.652,1.218
728.913,1.228
729.175,1.239
729.436,1.224
729.698,1.224
729.960,1.236
730.221,1.213
730.483,1.206
730.745,1.195
731.007,1.210
731.268,1.214
731.530,1.218
731.792,1.214
732.054,1.214
732.315,1.213
732.577,1.216
732.839,1.221
733.101,1.213
733.363,1.218
733.625,1.226
733.887,1.228
734.149,1.232
734.411,1.226
734.673,1.221
734.935,1.223
735.197,1.216
735.459,1.218
735.721,1.232
735.983,1.223
736.245,1.216
736.507,1.214
736.769,1.234
737.031,1.234
737.293,1.224
737.555,1.210
737.818,1.208
738.080,1.205
738.342,1.208
738.604,1.216
738.867,1.208
739.129,1.197
739.391,1.193
739.654,1.197
739.916,1.195
740.178,1.195
740.441,1.210
740.703,1.221
740.966,1.211
741.228,1.208
741.491,1.210
741.753,1.198
742.016,1.218
742.278,1.221
742.541,1.211
742.804,1.213
743.066,1.224
743.329,1.226
743.592,1.224
743.854,1.216
744.117,1.229
744.380,1.236
744.643,1.223
744.905,1.214
745.168,1.214
745.431,1.221
745.694,1.216
745.957,1.216
746.220,1.213
746.483,1.206
746.746,1.197
747.009,1.201
747.272,1.219
747.535,1.241
