Wavelength (nm),Intensity B4.1,,C:/Users/Brend/Desktop/LED Spectras v2/Blinds/-Interference/Spectrometer Data (Newer).sp,,,B4.1,
379.792,1.501,,2018-07-02 14:45:43,,Integration Time,100 ms,
380.000,1.488,,Analyze Light,,Number of Scans to Average,25,
380.209,1.483,,,,Smoothing,0,
380.418,1.497
380.627,1.518
380.837,1.537
381.048,1.553
381.259,1.558
381.471,1.537
381.683,1.540
381.896,1.546
382.110,1.546
382.324,1.554
382.538,1.583
382.753,1.585
382.969,1.583
383.185,1.563
383.402,1.560
383.619,1.562
383.837,1.574
384.055,1.583
384.274,1.595
384.493,1.593
384.712,1.597
384.932,1.609
385.153,1.615
385.374,1.614
385.596,1.616
385.818,1.623
386.040,1.638
386.263,1.644
386.487,1.656
386.710,1.645
386.935,1.636
387.159,1.629
387.385,1.636
387.610,1.628
387.836,1.633
388.063,1.642
388.289,1.654
388.517,1.650
388.744,1.652
388.972,1.650
389.201,1.664
389.430,1.668
389.659,1.672
389.889,1.675
390.119,1.681
390.349,1.681
390.580,1.689
390.811,1.703
391.042,1.699
391.274,1.703
391.507,1.714
391.739,1.712
391.972,1.709
392.205,1.709
392.439,1.712
392.673,1.717
392.907,1.719
393.142,1.740
393.377,1.750
393.612,1.760
393.848,1.761
394.084,1.756
394.320,1.751
394.557,1.752
394.794,1.761
395.031,1.771
395.269,1.777
395.507,1.786
395.745,1.794
395.983,1.789
396.222,1.798
396.461,1.809
396.700,1.823
396.940,1.825
397.180,1.819
397.420,1.818
397.660,1.818
397.901,1.819
398.142,1.820
398.383,1.829
398.625,1.826
398.866,1.826
399.108,1.849
399.351,1.866
399.593,1.875
399.836,1.858
400.079,1.849
400.322,1.853
400.566,1.851
400.809,1.852
401.053,1.855
401.298,1.858
401.542,1.857
401.787,1.870
402.031,1.887
402.277,1.888
402.522,1.894
402.767,1.894
403.013,1.899
403.259,1.894
403.505,1.901
403.752,1.911
403.998,1.912
404.245,1.913
404.492,1.937
404.739,1.948
404.986,1.944
405.234,1.950
405.482,1.954
405.730,1.945
405.978,1.932
406.226,1.943
406.475,1.931
406.723,1.924
406.972,1.941
407.221,1.959
407.470,1.964
407.720,1.959
407.969,1.971
408.219,1.960
408.469,1.981
408.719,1.986
408.969,1.984
409.219,1.995
409.470,2.005
409.720,1.992
409.971,1.993
410.222,2.001
410.473,2.006
410.724,2.009
410.976,2.018
411.227,2.025
411.479,2.037
411.731,2.033
411.983,2.034
412.235,2.030
412.487,2.025
412.740,2.024
412.992,2.041
413.245,2.048
413.497,2.051
413.750,2.042
414.003,2.052
414.257,2.042
414.510,2.046
414.763,2.053
415.017,2.057
415.270,2.060
415.524,2.062
415.778,2.059
416.032,2.063
416.286,2.065
416.540,2.075
416.794,2.068
417.049,2.084
417.303,2.082
417.558,2.084
417.812,2.084
418.067,2.072
418.322,2.074
418.577,2.089
418.832,2.083
419.088,2.077
419.343,2.073
419.598,2.084
419.854,2.069
420.109,2.084
420.365,2.086
420.621,2.093
420.876,2.098
421.132,2.104
421.388,2.108
421.645,2.107
421.901,2.095
422.157,2.104
422.413,2.103
422.670,2.117
422.926,2.110
423.183,2.112
423.439,2.111
423.696,2.142
423.953,2.156
424.210,2.175
424.467,2.183
424.724,2.168
424.981,2.172
425.238,2.176
425.495,2.195
425.753,2.221
426.010,2.229
426.267,2.249
426.525,2.262
426.782,2.292
427.040,2.316
427.298,2.346
427.555,2.373
427.813,2.403
428.071,2.420
428.329,2.447
428.587,2.478
428.845,2.511
429.103,2.560
429.361,2.600
429.619,2.639
429.878,2.685
430.136,2.738
430.394,2.803
430.653,2.850
430.911,2.937
431.170,3.011
431.428,3.088
431.687,3.150
431.946,3.227
432.204,3.308
432.463,3.400
432.722,3.490
432.981,3.585
433.240,3.673
433.499,3.813
433.758,3.931
434.017,4.064
434.276,4.170
434.535,4.310
434.794,4.453
435.053,4.605
435.312,4.773
435.572,4.935
435.831,5.089
436.090,5.270
436.350,5.450
436.609,5.649
436.869,5.840
437.128,6.058
437.388,6.270
437.647,6.487
437.907,6.699
438.166,6.963
438.426,7.184
438.686,7.442
438.946,7.711
439.205,8.014
439.465,8.301
439.725,8.627
439.985,8.934
440.245,9.278
440.505,9.599
440.765,9.944
441.025,10.275
441.285,10.649
441.545,11.039
441.805,11.449
442.065,11.872
442.325,12.326
442.585,12.791
442.846,13.286
443.106,13.773
443.366,14.354
443.626,14.892
443.887,15.460
444.147,16.088
444.407,16.730
444.668,17.392
444.928,18.092
445.189,18.842
445.449,19.631
445.710,20.453
445.970,21.305
446.231,22.220
446.491,23.143
446.752,24.114
447.012,25.130
447.273,26.136
447.534,27.229
447.794,28.314
448.055,29.422
448.316,30.584
448.577,31.855
448.837,33.131
449.098,34.439
449.359,35.754
449.620,37.089
449.881,38.408
450.142,39.746
450.403,41.117
450.664,42.512
450.924,43.925
451.185,45.333
451.446,46.737
451.707,48.095
451.969,49.422
452.230,50.758
452.491,52.079
452.752,53.303
453.013,54.452
453.274,55.605
453.535,56.639
453.796,57.595
454.058,58.488
454.319,59.276
454.580,59.998
454.841,60.586
455.103,61.086
455.364,61.505
455.625,61.822
455.887,62.017
456.148,62.129
456.409,62.127
456.671,62.046
456.932,61.822
457.194,61.469
457.455,61.041
457.716,60.528
457.978,59.925
458.239,59.232
458.501,58.506
458.763,57.732
459.024,56.922
459.286,55.995
459.547,55.051
459.809,53.990
460.071,52.827
460.332,51.692
460.594,50.577
460.856,49.443
461.117,48.310
461.379,47.188
461.641,46.088
461.903,44.989
462.164,43.935
462.426,42.881
462.688,41.832
462.950,40.815
463.212,39.804
463.474,38.858
463.736,37.945
463.998,37.048
464.260,36.258
464.522,35.493
464.784,34.760
465.046,34.042
465.308,33.409
465.570,32.796
465.832,32.225
466.094,31.653
466.356,31.081
466.618,30.574
466.880,30.044
467.142,29.483
467.405,28.980
467.667,28.492
467.929,28.011
468.191,27.524
468.454,27.075
468.716,26.618
468.978,26.153
469.241,25.666
469.503,25.209
469.765,24.739
470.028,24.325
470.290,23.916
470.552,23.491
470.815,23.051
471.077,22.610
471.340,22.147
471.602,21.703
471.865,21.269
472.128,20.845
472.390,20.412
472.653,19.965
472.915,19.525
473.178,19.102
473.441,18.657
473.703,18.228
473.966,17.786
474.229,17.347
474.492,16.887
474.755,16.467
475.017,16.029
475.280,15.629
475.543,15.205
475.806,14.838
476.069,14.430
476.332,14.010
476.595,13.621
476.858,13.251
477.121,12.882
477.384,12.547
477.647,12.200
477.910,11.899
478.173,11.588
478.436,11.282
478.699,10.958
478.962,10.685
479.226,10.415
479.489,10.154
479.752,9.890
480.015,9.642
480.279,9.381
480.542,9.144
480.805,8.909
481.069,8.690
481.332,8.448
481.595,8.255
481.859,8.075
482.122,7.925
482.386,7.700
482.649,7.515
482.913,7.325
483.177,7.158
483.440,6.966
483.704,6.802
483.967,6.641
484.231,6.525
484.495,6.372
484.759,6.232
485.022,6.084
485.286,5.936
485.550,5.783
485.814,5.651
486.078,5.481
486.342,5.365
486.606,5.235
486.869,5.126
487.133,4.995
487.397,4.886
487.662,4.767
487.926,4.639
488.190,4.488
488.454,4.390
488.718,4.273
488.982,4.172
489.246,4.050
489.511,3.970
489.775,3.857
490.039,3.761
490.304,3.656
490.568,3.562
490.832,3.452
491.097,3.389
491.361,3.309
491.626,3.234
491.890,3.152
492.155,3.074
492.419,2.978
492.684,2.926
492.949,2.836
493.213,2.762
493.478,2.706
493.743,2.663
494.008,2.587
494.272,2.519
494.537,2.468
494.802,2.438
495.067,2.403
495.332,2.372
495.597,2.326
495.862,2.295
496.127,2.244
496.392,2.214
496.657,2.172
496.922,2.124
497.187,2.084
497.452,2.066
497.718,2.047
497.983,2.040
498.248,2.011
498.513,1.975
498.779,1.946
499.044,1.947
499.310,1.934
499.575,1.893
499.841,1.862
500.106,1.854
500.372,1.829
500.637,1.804
500.903,1.795
501.168,1.788
501.434,1.763
501.700,1.736
501.966,1.717
502.231,1.705
502.497,1.690
502.763,1.676
503.029,1.652
503.295,1.641
503.561,1.632
503.827,1.619
504.093,1.622
504.359,1.626
504.625,1.616
504.891,1.600
505.157,1.579
505.423,1.564
505.690,1.530
505.956,1.520
506.222,1.529
506.489,1.528
506.755,1.536
507.021,1.548
507.288,1.533
507.554,1.508
507.821,1.475
508.087,1.469
508.354,1.476
508.621,1.491
508.887,1.470
509.154,1.455
509.421,1.454
509.687,1.444
509.954,1.433
510.221,1.432
510.488,1.425
510.755,1.429
511.022,1.436
511.289,1.428
511.556,1.401
511.823,1.400
512.090,1.407
512.357,1.418
512.624,1.400
512.891,1.393
513.159,1.382
513.426,1.368
513.693,1.360
513.960,1.355
514.228,1.352
514.495,1.357
514.763,1.358
515.030,1.360
515.298,1.349
515.565,1.347
515.833,1.354
516.100,1.343
516.368,1.340
516.636,1.346
516.904,1.336
517.171,1.336
517.439,1.326
517.707,1.321
517.975,1.317
518.243,1.320
518.511,1.321
518.779,1.309
519.047,1.297
519.315,1.314
519.583,1.312
519.851,1.295
520.119,1.296
520.387,1.298
520.656,1.294
520.924,1.293
521.192,1.290
521.461,1.295
521.729,1.303
521.997,1.298
522.266,1.294
522.534,1.300
522.803,1.303
523.071,1.304
523.340,1.289
523.609,1.280
523.877,1.277
524.146,1.278
524.415,1.276
524.684,1.270
524.952,1.279
525.221,1.270
525.490,1.265
525.759,1.272
526.028,1.274
526.297,1.263
526.566,1.253
526.835,1.258
527.104,1.255
527.373,1.259
527.642,1.261
527.912,1.250
528.181,1.246
528.450,1.251
528.719,1.252
528.989,1.265
529.258,1.272
529.528,1.274
529.797,1.263
530.067,1.259
530.336,1.265
530.606,1.250
530.875,1.245
531.145,1.239
531.414,1.239
531.684,1.251
531.954,1.255
532.224,1.254
532.493,1.244
532.763,1.228
533.033,1.230
533.303,1.237
533.573,1.241
533.843,1.235
534.113,1.226
534.383,1.238
534.653,1.226
534.923,1.234
535.193,1.239
535.463,1.241
535.733,1.251
536.004,1.249
536.274,1.249
536.544,1.242
536.814,1.235
537.085,1.231
537.355,1.227
537.626,1.236
537.896,1.241
538.166,1.243
538.437,1.235
538.707,1.231
538.978,1.227
539.249,1.235
539.519,1.235
539.790,1.227
540.061,1.212
540.331,1.218
540.602,1.232
540.873,1.235
541.144,1.226
541.414,1.231
541.685,1.232
541.956,1.231
542.227,1.223
542.498,1.223
542.769,1.220
543.040,1.229
543.311,1.242
543.582,1.243
543.853,1.237
544.124,1.234
544.396,1.241
544.667,1.249
544.938,1.244
545.209,1.231
545.480,1.207
545.752,1.220
546.023,1.236
546.294,1.236
546.566,1.225
546.837,1.222
547.109,1.220
547.380,1.220
547.652,1.218
547.923,1.212
548.195,1.219
548.466,1.231
548.738,1.235
549.009,1.242
549.281,1.236
549.553,1.226
549.824,1.216
550.096,1.212
550.368,1.213
550.640,1.213
550.911,1.210
551.183,1.216
551.455,1.238
551.727,1.251
551.999,1.249
552.271,1.232
552.543,1.216
552.815,1.208
553.087,1.213
553.359,1.229
553.631,1.238
553.903,1.233
554.175,1.229
554.447,1.238
554.719,1.236
554.991,1.240
555.263,1.243
555.535,1.232
555.808,1.215
556.080,1.216
556.352,1.209
556.624,1.212
556.897,1.213
557.169,1.212
557.441,1.208
557.714,1.205
557.986,1.201
558.258,1.204
558.531,1.207
558.803,1.214
559.076,1.217
559.348,1.224
559.621,1.213
559.893,1.210
560.166,1.215
560.438,1.212
560.711,1.210
560.983,1.204
561.256,1.206
561.528,1.213
561.801,1.217
562.074,1.217
562.346,1.218
562.619,1.228
562.892,1.224
563.164,1.214
563.437,1.219
563.710,1.223
563.983,1.215
564.255,1.201
564.528,1.201
564.801,1.224
565.074,1.235
565.346,1.220
565.619,1.208
565.892,1.215
566.165,1.222
566.438,1.209
566.711,1.197
566.984,1.197
567.257,1.196
567.529,1.196
567.802,1.208
568.075,1.228
568.348,1.221
568.621,1.211
568.894,1.210
569.167,1.212
569.440,1.215
569.713,1.205
569.986,1.199
570.259,1.198
570.532,1.198
570.805,1.205
571.078,1.207
571.351,1.206
571.625,1.204
571.898,1.203
572.171,1.199
572.444,1.193
572.717,1.199
572.990,1.216
573.263,1.210
573.536,1.195
573.809,1.186
574.083,1.176
574.356,1.176
574.629,1.193
574.902,1.205
575.175,1.206
575.448,1.197
575.721,1.187
575.995,1.185
576.268,1.188
576.541,1.193
576.814,1.200
577.087,1.201
577.361,1.201
577.634,1.196
577.907,1.188
578.180,1.176
578.453,1.180
578.727,1.191
579.000,1.196
579.273,1.201
579.546,1.208
579.820,1.209
580.093,1.207
580.366,1.208
580.639,1.205
580.913,1.197
581.186,1.201
581.459,1.200
581.732,1.197
582.005,1.187
582.279,1.192
582.552,1.188
582.825,1.194
583.098,1.196
583.372,1.193
583.645,1.199
583.918,1.200
584.191,1.200
584.464,1.197
584.738,1.198
585.011,1.196
585.284,1.193
585.557,1.192
585.831,1.196
586.104,1.202
586.377,1.222
586.650,1.228
586.923,1.216
587.196,1.205
587.470,1.209
587.743,1.200
588.016,1.196
588.289,1.200
588.562,1.203
588.835,1.208
589.109,1.200
589.382,1.196
589.655,1.186
589.928,1.180
590.201,1.188
590.474,1.190
590.747,1.198
591.020,1.201
591.293,1.208
591.567,1.202
591.840,1.190
592.113,1.188
592.386,1.191
592.659,1.177
592.932,1.172
593.205,1.186
593.478,1.195
593.751,1.183
594.024,1.178
594.297,1.176
594.570,1.167
594.843,1.179
595.116,1.194
595.389,1.192
595.662,1.189
595.934,1.181
596.207,1.191
596.480,1.195
596.753,1.203
597.026,1.207
597.299,1.201
597.572,1.201
597.844,1.200
598.117,1.193
598.390,1.187
598.663,1.189
598.936,1.189
599.208,1.196
599.481,1.192
599.754,1.193
600.026,1.185
600.299,1.171
600.572,1.172
600.844,1.177
601.117,1.172
601.390,1.164
601.662,1.169
601.935,1.164
602.207,1.159
602.480,1.167
602.752,1.175
603.025,1.165
603.297,1.166
603.570,1.173
603.842,1.188
604.115,1.197
604.387,1.200
604.660,1.202
604.932,1.193
605.204,1.195
605.477,1.199
605.749,1.207
606.021,1.204
606.294,1.212
606.566,1.204
606.838,1.194
607.110,1.203
607.383,1.204
607.655,1.200
607.927,1.197
608.199,1.197
608.471,1.194
608.743,1.183
609.015,1.181
609.287,1.180
609.559,1.181
609.831,1.185
610.103,1.190
610.375,1.187
610.647,1.176
610.919,1.171
611.191,1.168
611.463,1.174
611.735,1.185
612.007,1.182
612.278,1.176
612.550,1.173
612.822,1.177
613.094,1.185
613.365,1.194
613.637,1.190
613.909,1.203
614.180,1.198
614.452,1.194
614.723,1.191
614.995,1.184
615.266,1.177
615.538,1.192
615.809,1.198
616.081,1.199
616.352,1.191
616.623,1.191
616.895,1.181
617.166,1.176
617.437,1.166
617.709,1.175
617.980,1.187
618.251,1.187
618.522,1.192
618.793,1.197
619.065,1.210
619.336,1.214
619.607,1.195
619.878,1.187
620.149,1.197
620.420,1.205
620.691,1.194
620.962,1.191
621.232,1.200
621.503,1.199
621.774,1.187
622.045,1.184
622.316,1.183
622.586,1.192
622.857,1.205
623.128,1.208
623.398,1.199
623.669,1.196
623.940,1.194
624.210,1.180
624.481,1.184
624.751,1.197
625.021,1.191
625.292,1.185
625.562,1.184
625.833,1.184
626.103,1.182
626.373,1.180
626.643,1.182
626.914,1.185
627.184,1.189
627.454,1.188
627.724,1.180
627.994,1.175
628.264,1.178
628.534,1.172
628.804,1.159
629.074,1.165
629.344,1.176
629.614,1.178
629.884,1.173
630.154,1.168
630.424,1.164
630.693,1.160
630.963,1.152
631.233,1.142
631.502,1.145
631.772,1.163
632.041,1.181
632.311,1.181
632.581,1.178
632.850,1.177
633.119,1.168
633.389,1.156
633.658,1.151
633.928,1.154
634.197,1.165
634.466,1.170
634.735,1.177
635.004,1.177
635.274,1.162
635.543,1.161
635.812,1.171
636.081,1.172
636.350,1.168
636.619,1.167
636.888,1.167
637.157,1.174
637.426,1.182
637.694,1.187
637.963,1.178
638.232,1.173
638.501,1.170
638.769,1.167
639.038,1.181
639.307,1.191
639.575,1.191
639.844,1.190
640.112,1.174
640.381,1.174
640.649,1.173
640.917,1.176
641.186,1.177
641.454,1.175
641.722,1.176
641.991,1.172
642.259,1.174
642.527,1.174
642.795,1.177
643.063,1.173
643.331,1.159
643.599,1.164
643.867,1.168
644.135,1.175
644.403,1.173
644.671,1.177
644.939,1.179
645.206,1.182
645.474,1.182
645.742,1.179
646.009,1.173
646.277,1.169
646.545,1.170
646.812,1.178
647.080,1.186
647.347,1.189
647.615,1.182
647.882,1.175
648.149,1.163
648.417,1.164
648.684,1.167
648.951,1.175
649.219,1.175
649.486,1.170
649.753,1.171
650.020,1.168
650.287,1.163
650.554,1.169
650.821,1.165
651.088,1.159
651.355,1.161
651.622,1.174
651.889,1.170
652.155,1.171
652.422,1.168
652.689,1.172
652.956,1.186
653.222,1.190
653.489,1.200
653.755,1.208
654.022,1.192
654.288,1.174
654.555,1.171
654.821,1.177
655.088,1.176
655.354,1.182
655.620,1.191
655.887,1.193
656.153,1.188
656.419,1.184
656.685,1.191
656.951,1.184
657.217,1.176
657.483,1.171
657.749,1.170
658.015,1.171
658.281,1.174
658.547,1.174
658.813,1.164
659.079,1.163
659.345,1.158
659.610,1.167
659.876,1.177
660.142,1.175
660.407,1.174
660.673,1.171
660.939,1.174
661.204,1.179
661.470,1.171
661.735,1.162
662.000,1.167
662.266,1.171
662.531,1.170
662.796,1.167
663.062,1.171
663.327,1.165
663.592,1.162
663.857,1.170
664.122,1.162
664.388,1.162
664.653,1.166
664.918,1.174
665.183,1.178
665.448,1.175
665.712,1.185
665.977,1.187
666.242,1.183
666.507,1.173
666.772,1.159
667.037,1.162
667.301,1.165
667.566,1.160
667.831,1.171
668.095,1.170
668.360,1.168
668.624,1.164
668.889,1.158
669.153,1.164
669.418,1.160
669.682,1.160
669.946,1.165
670.211,1.171
670.475,1.178
670.739,1.175
671.004,1.188
671.268,1.200
671.532,1.228
671.796,1.224
672.060,1.179
672.324,1.186
672.588,1.203
672.852,1.209
673.116,1.233
673.380,1.268
673.644,1.251
673.908,1.177
674.172,1.172
674.436,1.171
674.700,1.177
674.963,1.176
675.227,1.179
675.491,1.175
675.754,1.162
676.018,1.167
676.282,1.180
676.545,1.183
676.809,1.174
677.072,1.173
677.336,1.163
677.599,1.161
677.863,1.162
678.126,1.152
678.389,1.165
678.653,1.187
678.916,1.181
679.179,1.167
679.442,1.163
679.706,1.165
679.969,1.172
680.232,1.165
680.495,1.177
680.758,1.192
681.021,1.192
681.284,1.177
681.547,1.168
681.810,1.174
682.073,1.184
682.336,1.193
682.599,1.184
682.862,1.184
683.125,1.196
683.388,1.190
683.651,1.188
683.913,1.189
684.176,1.183
684.439,1.162
684.702,1.152
684.964,1.146
685.227,1.145
685.490,1.152
685.752,1.165
686.015,1.176
686.277,1.162
686.540,1.158
686.802,1.158
687.065,1.155
687.327,1.163
687.590,1.168
687.852,1.152
688.115,1.143
688.377,1.144
688.639,1.154
688.902,1.155
689.164,1.161
689.426,1.166
689.689,1.178
689.951,1.168
690.213,1.158
690.475,1.169
690.737,1.175
691.000,1.167
691.262,1.157
691.524,1.158
691.786,1.162
692.048,1.179
692.310,1.180
692.572,1.156
692.834,1.148
693.096,1.154
693.358,1.162
693.620,1.176
693.882,1.181
694.144,1.181
694.406,1.178
694.668,1.172
694.930,1.172
695.192,1.167
695.453,1.162
695.715,1.170
695.977,1.173
696.239,1.165
696.501,1.163
696.762,1.167
697.024,1.174
697.286,1.164
697.548,1.155
697.809,1.161
698.071,1.155
698.333,1.152
698.594,1.151
698.856,1.156
699.118,1.163
699.379,1.168
699.641,1.172
699.902,1.179
700.164,1.180
700.426,1.171
700.687,1.170
700.949,1.166
701.210,1.168
701.472,1.168
701.733,1.156
701.995,1.149
702.256,1.153
702.518,1.150
702.779,1.149
703.041,1.160
703.302,1.177
703.563,1.180
703.825,1.158
704.086,1.153
704.348,1.159
704.609,1.159
704.871,1.165
705.132,1.166
705.393,1.163
705.655,1.153
705.916,1.168
706.177,1.166
706.439,1.155
706.700,1.157
706.961,1.154
707.223,1.154
707.484,1.154
707.745,1.128
708.007,1.124
708.268,1.116
708.529,1.103
708.790,1.100
709.052,1.092
709.313,1.093
709.574,1.112
709.835,1.116
710.097,1.115
710.358,1.107
710.619,1.093
710.881,1.081
711.142,1.077
711.403,1.071
711.664,1.069
711.926,1.069
712.187,1.068
712.448,1.071
712.709,1.079
712.970,1.081
713.232,1.088
713.493,1.093
713.754,1.088
714.015,1.092
714.277,1.102
714.538,1.100
714.799,1.105
715.060,1.110
715.322,1.105
715.583,1.104
715.844,1.101
716.105,1.085
716.367,1.079
716.628,1.082
716.889,1.085
717.150,1.082
717.411,1.074
717.673,1.069
717.934,1.078
718.195,1.084
718.457,1.086
718.718,1.075
718.979,1.073
719.240,1.081
719.502,1.083
719.763,1.092
720.024,1.093
720.286,1.099
720.547,1.094
720.808,1.083
721.069,1.082
721.331,1.090
721.592,1.097
721.853,1.098
722.115,1.088
722.376,1.095
722.638,1.099
722.899,1.088
723.160,1.088
723.422,1.089
723.683,1.086
723.944,1.086
724.206,1.097
724.467,1.089
724.729,1.087
724.990,1.095
725.252,1.096
725.513,1.096
725.775,1.079
726.036,1.066
726.298,1.065
726.559,1.074
726.821,1.080
727.082,1.081
727.344,1.078
727.605,1.065
727.867,1.064
728.128,1.056
728.390,1.062
728.652,1.074
728.913,1.096
729.175,1.112
729.436,1.104
729.698,1.095
729.960,1.100
730.221,1.088
730.483,1.077
730.745,1.075
731.007,1.085
731.268,1.084
731.530,1.084
731.792,1.085
732.054,1.086
732.315,1.085
732.577,1.089
732.839,1.084
733.101,1.078
733.363,1.081
733.625,1.080
733.887,1.082
734.149,1.084
734.411,1.084
734.673,1.093
734.935,1.099
735.197,1.092
735.459,1.091
735.721,1.100
735.983,1.090
736.245,1.076
736.507,1.074
736.769,1.084
737.031,1.090
737.293,1.090
737.555,1.078
737.818,1.075
738.080,1.074
738.342,1.077
738.604,1.080
738.867,1.080
739.129,1.073
739.391,1.072
739.654,1.074
739.916,1.077
740.178,1.074
740.441,1.084
740.703,1.090
740.966,1.076
741.228,1.073
741.491,1.080
741.753,1.081
742.016,1.084
742.278,1.087
742.541,1.091
742.804,1.096
743.066,1.093
743.329,1.096
743.592,1.089
743.854,1.083
744.117,1.093
744.380,1.100
744.643,1.099
744.905,1.085
745.168,1.084
745.431,1.083
745.694,1.078
745.957,1.079
746.220,1.077
746.483,1.073
746.746,1.074
747.009,1.082
747.272,1.097
