Wavelength (nm),Intensity B6.2,,C:/Users/Brend/Desktop/LED Spectras v2/Blinds/-Interference/Spectrometer Data (Newer).sp,,,B6.2,
379.792,1.545,,2018-07-02 14:45:02,,Integration Time,100 ms,
380.000,1.537,,Analyze Light,,Number of Scans to Average,25,
380.209,1.531,,,,Smoothing,0,
380.418,1.545
380.627,1.545
380.837,1.554
381.048,1.573
381.259,1.572
381.471,1.551
381.683,1.572
381.896,1.579
382.110,1.575
382.324,1.561
382.538,1.584
382.753,1.601
382.969,1.603
383.185,1.582
383.402,1.568
383.619,1.566
383.837,1.577
384.055,1.584
384.274,1.619
384.493,1.617
384.712,1.612
384.932,1.615
385.153,1.631
385.374,1.641
385.596,1.641
385.818,1.647
386.040,1.655
386.263,1.666
386.487,1.657
386.710,1.657
386.935,1.661
387.159,1.647
387.385,1.652
387.610,1.648
387.836,1.641
388.063,1.659
388.289,1.661
388.517,1.666
388.744,1.675
388.972,1.678
389.201,1.690
389.430,1.681
389.659,1.668
389.889,1.673
390.119,1.683
390.349,1.687
390.580,1.694
390.811,1.699
391.042,1.694
391.274,1.694
391.507,1.702
391.739,1.706
391.972,1.704
392.205,1.709
392.439,1.718
392.673,1.722
392.907,1.722
393.142,1.727
393.377,1.741
393.612,1.744
393.848,1.741
394.084,1.748
394.320,1.762
394.557,1.763
394.794,1.762
395.031,1.765
395.269,1.781
395.507,1.791
395.745,1.795
395.983,1.781
396.222,1.788
396.461,1.793
396.700,1.818
396.940,1.814
397.180,1.811
397.420,1.812
397.660,1.805
397.901,1.811
398.142,1.809
398.383,1.821
398.625,1.809
398.866,1.797
399.108,1.823
399.351,1.856
399.593,1.875
399.836,1.851
400.079,1.842
400.322,1.832
400.566,1.833
400.809,1.832
401.053,1.838
401.298,1.833
401.542,1.838
401.787,1.844
402.031,1.858
402.277,1.858
402.522,1.865
402.767,1.866
403.013,1.872
403.259,1.859
403.505,1.870
403.752,1.873
403.998,1.882
404.245,1.887
404.492,1.908
404.739,1.903
404.986,1.905
405.234,1.917
405.482,1.924
405.730,1.915
405.978,1.913
406.226,1.907
406.475,1.889
406.723,1.891
406.972,1.908
407.221,1.929
407.470,1.936
407.720,1.931
407.969,1.931
408.219,1.915
408.469,1.936
408.719,1.940
408.969,1.941
409.219,1.955
409.470,1.976
409.720,1.962
409.971,1.968
410.222,1.978
410.473,1.992
410.724,1.994
410.976,1.988
411.227,2.002
411.479,2.006
411.731,2.002
411.983,1.994
412.235,1.990
412.487,1.995
412.740,1.997
412.992,2.013
413.245,2.013
413.497,2.009
413.750,2.006
414.003,2.013
414.257,2.008
414.510,2.009
414.763,2.016
415.017,2.020
415.270,2.015
415.524,2.016
415.778,2.016
416.032,2.011
416.286,2.018
416.540,2.025
416.794,2.029
417.049,2.032
417.303,2.023
417.558,2.037
417.812,2.060
418.067,2.063
418.322,2.062
418.577,2.053
418.832,2.041
419.088,2.032
419.343,2.025
419.598,2.036
419.854,2.020
420.109,2.032
420.365,2.041
420.621,2.055
420.876,2.044
421.132,2.050
421.388,2.046
421.645,2.027
421.901,2.027
422.157,2.043
422.413,2.048
422.670,2.048
422.926,2.043
423.183,2.050
423.439,2.048
423.696,2.067
423.953,2.084
424.210,2.114
424.467,2.118
424.724,2.100
424.981,2.105
425.238,2.105
425.495,2.123
425.753,2.145
426.010,2.166
426.267,2.170
426.525,2.179
426.782,2.207
427.040,2.210
427.298,2.222
427.555,2.248
427.813,2.280
428.071,2.308
428.329,2.329
428.587,2.346
428.845,2.365
429.103,2.397
429.361,2.426
429.619,2.463
429.878,2.505
430.136,2.540
430.394,2.601
430.653,2.651
430.911,2.718
431.170,2.775
431.428,2.831
431.687,2.882
431.946,2.948
432.204,3.000
432.463,3.086
432.722,3.183
432.981,3.255
433.240,3.328
433.499,3.426
433.758,3.523
434.017,3.644
434.276,3.738
434.535,3.841
434.794,3.951
435.053,4.092
435.312,4.212
435.572,4.364
435.831,4.512
436.090,4.692
436.350,4.847
436.609,5.025
436.869,5.191
437.128,5.365
437.388,5.538
437.647,5.735
437.907,5.941
438.166,6.159
438.426,6.361
438.686,6.585
438.946,6.796
439.205,7.052
439.465,7.312
439.725,7.591
439.985,7.889
440.245,8.196
440.505,8.467
440.765,8.788
441.025,9.093
441.285,9.451
441.545,9.806
441.805,10.166
442.065,10.523
442.325,10.933
442.585,11.319
442.846,11.753
443.106,12.198
443.366,12.714
443.626,13.203
443.887,13.705
444.147,14.274
444.407,14.839
444.668,15.416
444.928,16.074
445.189,16.719
445.449,17.427
445.710,18.121
445.970,18.887
446.231,19.660
446.491,20.499
446.752,21.348
447.012,22.276
447.273,23.182
447.534,24.183
447.794,25.189
448.055,26.183
448.316,27.227
448.577,28.360
448.837,29.510
449.098,30.710
449.359,31.945
449.620,33.196
449.881,34.434
450.142,35.700
450.403,36.974
450.664,38.315
450.924,39.648
451.185,40.984
451.446,42.320
451.707,43.682
451.969,45.015
452.230,46.379
452.491,47.666
452.752,48.936
453.013,50.136
453.274,51.331
453.535,52.439
453.796,53.487
454.058,54.441
454.319,55.393
454.580,56.222
454.841,56.927
455.103,57.581
455.364,58.167
455.625,58.627
455.887,59.058
456.148,59.349
456.409,59.550
456.671,59.679
456.932,59.613
457.194,59.428
457.455,59.203
457.716,58.889
457.978,58.430
458.239,57.923
458.501,57.314
458.763,56.679
459.024,55.934
459.286,55.161
459.547,54.291
459.809,53.403
460.071,52.391
460.332,51.305
460.594,50.253
460.856,49.163
461.117,48.071
461.379,46.981
461.641,45.906
461.903,44.821
462.164,43.754
462.426,42.725
462.688,41.680
462.950,40.666
463.212,39.686
463.474,38.702
463.736,37.788
463.998,36.893
464.260,36.088
464.522,35.275
464.784,34.530
465.046,33.776
465.308,33.096
465.570,32.444
465.832,31.859
466.094,31.256
466.356,30.658
466.618,30.113
466.880,29.581
467.142,29.074
467.405,28.584
467.667,28.113
467.929,27.671
468.191,27.237
468.454,26.808
468.716,26.334
468.978,25.889
469.241,25.444
469.503,25.017
469.765,24.546
470.028,24.117
470.290,23.735
470.552,23.326
470.815,22.892
471.077,22.479
471.340,22.069
471.602,21.640
471.865,21.219
472.128,20.808
472.390,20.370
472.653,19.956
472.915,19.552
473.178,19.145
473.441,18.701
473.703,18.268
473.966,17.839
474.229,17.424
474.492,16.968
474.755,16.550
475.017,16.115
475.280,15.721
475.543,15.297
475.806,14.917
476.069,14.525
476.332,14.122
476.595,13.724
476.858,13.387
477.121,13.011
477.384,12.646
477.647,12.299
477.910,11.995
478.173,11.661
478.436,11.341
478.699,11.005
478.962,10.692
479.226,10.415
479.489,10.162
479.752,9.897
480.015,9.660
480.279,9.416
480.542,9.166
480.805,8.926
481.069,8.716
481.332,8.493
481.595,8.317
481.859,8.125
482.122,7.977
482.386,7.760
482.649,7.548
482.913,7.357
483.177,7.173
483.440,6.979
483.704,6.825
483.967,6.665
484.231,6.522
484.495,6.384
484.759,6.246
485.022,6.081
485.286,5.934
485.550,5.775
485.814,5.639
486.078,5.475
486.342,5.369
486.606,5.247
486.869,5.153
487.133,5.044
487.397,4.959
487.662,4.849
487.926,4.734
488.190,4.565
488.454,4.465
488.718,4.343
488.982,4.233
489.246,4.097
489.511,4.014
489.775,3.892
490.039,3.797
490.304,3.698
490.568,3.614
490.832,3.523
491.097,3.473
491.361,3.400
491.626,3.305
491.890,3.208
492.155,3.145
492.419,3.040
492.684,2.993
492.949,2.913
493.213,2.838
493.478,2.793
493.743,2.740
494.008,2.646
494.272,2.578
494.537,2.527
494.802,2.482
495.067,2.439
495.332,2.411
495.597,2.376
495.862,2.337
496.127,2.289
496.392,2.252
496.657,2.215
496.922,2.166
497.187,2.138
497.452,2.118
497.718,2.088
497.983,2.081
498.248,2.053
498.513,2.018
498.779,1.990
499.044,1.995
499.310,1.978
499.575,1.938
499.841,1.912
500.106,1.901
500.372,1.880
500.637,1.858
500.903,1.847
501.168,1.845
501.434,1.818
501.700,1.795
501.966,1.777
502.231,1.765
502.497,1.748
502.763,1.734
503.029,1.713
503.295,1.695
503.561,1.690
503.827,1.683
504.093,1.678
504.359,1.669
504.625,1.657
504.891,1.647
505.157,1.622
505.423,1.617
505.690,1.593
505.956,1.561
506.222,1.561
506.489,1.573
506.755,1.600
507.021,1.606
507.288,1.596
507.554,1.586
507.821,1.566
508.087,1.551
508.354,1.530
508.621,1.540
508.887,1.521
509.154,1.504
509.421,1.507
509.687,1.507
509.954,1.495
510.221,1.479
510.488,1.470
510.755,1.479
511.022,1.477
511.289,1.467
511.556,1.441
511.823,1.441
512.090,1.455
512.357,1.469
512.624,1.456
512.891,1.456
513.159,1.453
513.426,1.441
513.693,1.429
513.960,1.418
514.228,1.420
514.495,1.418
514.763,1.413
515.030,1.411
515.298,1.409
515.565,1.401
515.833,1.401
516.100,1.401
516.368,1.394
516.636,1.392
516.904,1.385
517.171,1.378
517.439,1.374
517.707,1.368
517.975,1.366
518.243,1.374
518.511,1.380
518.779,1.368
519.047,1.350
519.315,1.369
519.583,1.362
519.851,1.350
520.119,1.347
520.387,1.343
520.656,1.338
520.924,1.345
521.192,1.350
521.461,1.357
521.729,1.352
521.997,1.359
522.266,1.355
522.534,1.357
522.803,1.352
523.071,1.347
523.340,1.345
523.609,1.326
523.877,1.326
524.146,1.326
524.415,1.324
524.684,1.329
524.952,1.334
525.221,1.326
525.490,1.324
525.759,1.334
526.028,1.336
526.297,1.327
526.566,1.306
526.835,1.294
527.104,1.301
527.373,1.319
527.642,1.319
527.912,1.310
528.181,1.303
528.450,1.308
528.719,1.312
528.989,1.322
529.258,1.331
529.528,1.315
529.797,1.303
530.067,1.299
530.336,1.310
530.606,1.298
530.875,1.286
531.145,1.279
531.414,1.279
531.684,1.289
531.954,1.296
532.224,1.289
532.493,1.289
532.763,1.279
533.033,1.284
533.303,1.294
533.573,1.303
533.843,1.287
534.113,1.280
534.383,1.289
534.653,1.279
534.923,1.287
535.193,1.293
535.463,1.289
535.733,1.293
536.004,1.289
536.274,1.291
536.544,1.293
536.814,1.286
537.085,1.275
537.355,1.279
537.626,1.299
537.896,1.306
538.166,1.305
538.437,1.296
538.707,1.286
538.978,1.282
539.249,1.291
539.519,1.298
539.790,1.286
540.061,1.266
540.331,1.266
540.602,1.284
540.873,1.293
541.144,1.284
541.414,1.282
541.685,1.284
541.956,1.282
542.227,1.286
542.498,1.284
542.769,1.270
543.040,1.270
543.311,1.287
543.582,1.301
543.853,1.298
544.124,1.294
544.396,1.296
544.667,1.298
544.938,1.287
545.209,1.277
545.480,1.247
545.752,1.263
546.023,1.268
546.294,1.275
546.566,1.277
546.837,1.279
547.109,1.268
547.380,1.266
547.652,1.279
547.923,1.263
548.195,1.256
548.466,1.273
548.738,1.294
549.009,1.287
549.281,1.273
549.553,1.263
549.824,1.249
550.096,1.235
550.368,1.247
550.640,1.251
550.911,1.249
551.183,1.265
551.455,1.296
551.727,1.306
551.999,1.294
552.271,1.282
552.543,1.268
552.815,1.261
553.087,1.266
553.359,1.286
553.631,1.293
553.903,1.280
554.175,1.284
554.447,1.296
554.719,1.294
554.991,1.291
555.263,1.291
555.535,1.291
555.808,1.277
556.080,1.275
556.352,1.270
556.624,1.270
556.897,1.273
557.169,1.261
557.441,1.268
557.714,1.265
557.986,1.258
558.258,1.265
558.531,1.263
558.803,1.266
559.076,1.268
559.348,1.268
559.621,1.263
559.893,1.268
560.166,1.275
560.438,1.263
560.711,1.259
560.983,1.254
561.256,1.252
561.528,1.256
561.801,1.279
562.074,1.277
562.346,1.282
562.619,1.289
562.892,1.286
563.164,1.268
563.437,1.265
563.710,1.273
563.983,1.259
564.255,1.256
564.528,1.259
564.801,1.277
565.074,1.286
565.346,1.275
565.619,1.261
565.892,1.265
566.165,1.273
566.438,1.268
566.711,1.261
566.984,1.258
567.257,1.254
567.529,1.249
567.802,1.254
568.075,1.277
568.348,1.280
568.621,1.275
568.894,1.280
569.167,1.272
569.440,1.275
569.713,1.268
569.986,1.256
570.259,1.252
570.532,1.249
570.805,1.259
571.078,1.263
571.351,1.263
571.625,1.275
571.898,1.273
572.171,1.252
572.444,1.244
572.717,1.258
572.990,1.270
573.263,1.265
573.536,1.256
573.809,1.242
574.083,1.237
574.356,1.245
574.629,1.256
574.902,1.263
575.175,1.261
575.448,1.254
575.721,1.254
575.995,1.256
576.268,1.256
576.541,1.251
576.814,1.258
577.087,1.265
577.361,1.263
577.634,1.263
577.907,1.259
578.180,1.238
578.453,1.244
578.727,1.249
579.000,1.249
579.273,1.258
579.546,1.270
579.820,1.279
580.093,1.291
580.366,1.275
580.639,1.258
580.913,1.251
581.186,1.252
581.459,1.251
581.732,1.249
582.005,1.238
582.279,1.231
582.552,1.233
582.825,1.238
583.098,1.235
583.372,1.238
583.645,1.249
583.918,1.249
584.191,1.249
584.464,1.261
584.738,1.258
585.011,1.254
585.284,1.252
585.557,1.242
585.831,1.249
586.104,1.261
586.377,1.265
586.650,1.275
586.923,1.273
587.196,1.266
587.470,1.270
587.743,1.259
588.016,1.263
588.289,1.266
588.562,1.273
588.835,1.279
589.109,1.263
589.382,1.247
589.655,1.242
589.928,1.235
590.201,1.230
590.474,1.238
590.747,1.254
591.020,1.265
591.293,1.266
591.567,1.263
591.840,1.265
592.113,1.252
592.386,1.251
592.659,1.237
592.932,1.228
593.205,1.235
593.478,1.237
593.751,1.231
594.024,1.231
594.297,1.237
594.570,1.230
594.843,1.242
595.116,1.251
595.389,1.247
595.662,1.254
595.934,1.251
596.207,1.251
596.480,1.252
596.753,1.258
597.026,1.261
597.299,1.258
597.572,1.256
597.844,1.259
598.117,1.258
598.390,1.245
598.663,1.245
598.936,1.238
599.208,1.244
599.481,1.247
599.754,1.252
600.026,1.259
600.299,1.238
600.572,1.237
600.844,1.245
601.117,1.237
601.390,1.230
601.662,1.226
601.935,1.224
602.207,1.221
602.480,1.231
602.752,1.238
603.025,1.228
603.297,1.221
603.570,1.230
603.842,1.242
604.115,1.252
604.387,1.252
604.660,1.256
604.932,1.244
605.204,1.245
605.477,1.254
605.749,1.261
606.021,1.263
606.294,1.266
606.566,1.265
606.838,1.240
607.110,1.249
607.383,1.256
607.655,1.256
607.927,1.258
608.199,1.263
608.471,1.256
608.743,1.245
609.015,1.242
609.287,1.235
609.559,1.238
609.831,1.245
610.103,1.245
610.375,1.242
610.647,1.237
610.919,1.228
611.191,1.238
611.463,1.242
611.735,1.240
612.007,1.235
612.278,1.233
612.550,1.237
612.822,1.237
613.094,1.258
613.365,1.254
613.637,1.251
613.909,1.261
614.180,1.254
614.452,1.258
614.723,1.251
614.995,1.242
615.266,1.242
615.538,1.256
615.809,1.263
616.081,1.254
616.352,1.231
616.623,1.240
616.895,1.242
617.166,1.230
617.437,1.219
617.709,1.226
617.980,1.240
618.251,1.254
618.522,1.256
618.793,1.261
619.065,1.282
619.336,1.294
619.607,1.270
619.878,1.251
620.149,1.259
620.420,1.268
620.691,1.263
620.962,1.256
621.232,1.261
621.503,1.261
621.774,1.252
622.045,1.258
622.316,1.261
622.586,1.263
622.857,1.268
623.128,1.268
623.398,1.265
623.669,1.261
623.940,1.252
624.210,1.231
624.481,1.233
624.751,1.251
625.021,1.249
625.292,1.240
625.562,1.237
625.833,1.233
626.103,1.237
626.373,1.235
626.643,1.223
626.914,1.233
627.184,1.244
627.454,1.244
627.724,1.235
627.994,1.233
628.264,1.240
628.534,1.238
628.804,1.224
629.074,1.230
629.344,1.249
629.614,1.249
629.884,1.240
630.154,1.233
630.424,1.231
630.693,1.226
630.963,1.216
631.233,1.216
631.502,1.219
631.772,1.231
632.041,1.240
632.311,1.244
632.581,1.242
632.850,1.233
633.119,1.221
633.389,1.212
633.658,1.216
633.928,1.226
634.197,1.237
634.466,1.244
634.735,1.247
635.004,1.251
635.274,1.224
635.543,1.224
635.812,1.233
636.081,1.249
636.350,1.245
636.619,1.247
636.888,1.249
637.157,1.244
637.426,1.249
637.694,1.247
637.963,1.240
638.232,1.235
638.501,1.233
638.769,1.223
639.038,1.238
639.307,1.247
639.575,1.254
639.844,1.256
640.112,1.233
640.381,1.226
640.649,1.221
640.917,1.240
641.186,1.242
641.454,1.233
641.722,1.237
641.991,1.238
642.259,1.226
642.527,1.224
642.795,1.223
643.063,1.212
643.331,1.202
643.599,1.212
643.867,1.221
644.135,1.228
644.403,1.224
644.671,1.233
644.939,1.233
645.206,1.242
645.474,1.245
645.742,1.245
646.009,1.226
646.277,1.228
646.545,1.238
646.812,1.244
647.080,1.247
647.347,1.254
647.615,1.256
647.882,1.249
648.149,1.233
648.417,1.228
648.684,1.223
648.951,1.221
649.219,1.231
649.486,1.233
649.753,1.230
650.020,1.231
650.287,1.221
650.554,1.219
650.821,1.226
651.088,1.223
651.355,1.223
651.622,1.233
651.889,1.233
652.155,1.226
652.422,1.224
652.689,1.230
652.956,1.242
653.222,1.242
653.489,1.261
653.755,1.277
654.022,1.266
654.288,1.244
654.555,1.233
654.821,1.233
655.088,1.242
655.354,1.251
655.620,1.244
655.887,1.247
656.153,1.252
656.419,1.247
656.685,1.240
656.951,1.233
657.217,1.240
657.483,1.237
657.749,1.231
658.015,1.235
658.281,1.237
658.547,1.252
658.813,1.242
659.079,1.235
659.345,1.233
659.610,1.233
659.876,1.237
660.142,1.238
660.407,1.238
660.673,1.233
660.939,1.240
661.204,1.244
661.470,1.233
661.735,1.224
662.000,1.224
662.266,1.231
662.531,1.231
662.796,1.226
663.062,1.219
663.327,1.212
663.592,1.211
663.857,1.224
664.122,1.223
664.388,1.223
664.653,1.228
664.918,1.237
665.183,1.240
665.448,1.230
665.712,1.235
665.977,1.237
666.242,1.242
666.507,1.240
666.772,1.218
667.037,1.214
667.301,1.211
667.566,1.214
667.831,1.223
668.095,1.230
668.360,1.231
668.624,1.231
668.889,1.224
669.153,1.230
669.418,1.223
669.682,1.228
669.946,1.235
670.211,1.233
670.475,1.237
670.739,1.244
671.004,1.259
671.268,1.275
671.532,1.298
671.796,1.301
672.060,1.252
672.324,1.247
672.588,1.252
672.852,1.256
673.116,1.273
673.380,1.320
673.644,1.317
673.908,1.242
674.172,1.244
674.436,1.249
674.700,1.244
674.963,1.238
675.227,1.237
675.491,1.235
675.754,1.226
676.018,1.228
676.282,1.235
676.545,1.242
676.809,1.233
677.072,1.216
677.336,1.214
677.599,1.214
677.863,1.224
678.126,1.223
678.389,1.228
678.653,1.247
678.916,1.247
679.179,1.235
679.442,1.230
679.706,1.240
679.969,1.247
680.232,1.235
680.495,1.237
680.758,1.245
681.021,1.251
681.284,1.251
681.547,1.242
681.810,1.242
682.073,1.240
682.336,1.249
682.599,1.244
682.862,1.237
683.125,1.247
683.388,1.254
683.651,1.252
683.913,1.252
684.176,1.238
684.439,1.221
684.702,1.209
684.964,1.207
685.227,1.212
685.490,1.219
685.752,1.237
686.015,1.251
686.277,1.237
686.540,1.228
686.802,1.221
687.065,1.205
687.327,1.221
687.590,1.238
687.852,1.228
688.115,1.221
688.377,1.214
688.639,1.209
688.902,1.205
689.164,1.211
689.426,1.224
689.689,1.242
689.951,1.240
690.213,1.235
690.475,1.240
690.737,1.240
691.000,1.228
691.262,1.226
691.524,1.224
691.786,1.231
692.048,1.256
692.310,1.254
692.572,1.228
692.834,1.211
693.096,1.211
693.358,1.218
693.620,1.228
693.882,1.240
694.144,1.231
694.406,1.233
694.668,1.231
694.930,1.228
695.192,1.216
695.453,1.216
695.715,1.228
695.977,1.231
696.239,1.226
696.501,1.226
696.762,1.221
697.024,1.228
697.286,1.223
697.548,1.221
697.809,1.231
698.071,1.223
698.333,1.221
698.594,1.228
698.856,1.238
699.118,1.242
699.379,1.242
699.641,1.233
699.902,1.238
700.164,1.245
700.426,1.235
700.687,1.228
700.949,1.219
701.210,1.223
701.472,1.226
701.733,1.218
701.995,1.223
702.256,1.218
702.518,1.223
702.779,1.212
703.041,1.219
703.302,1.245
703.563,1.249
703.825,1.233
704.086,1.235
704.348,1.240
704.609,1.235
704.871,1.233
705.132,1.245
705.393,1.247
705.655,1.226
705.916,1.228
706.177,1.231
706.439,1.226
706.700,1.223
706.961,1.226
707.223,1.218
707.484,1.216
707.745,1.188
708.007,1.188
708.268,1.186
708.529,1.176
708.790,1.176
709.052,1.165
709.313,1.165
709.574,1.186
709.835,1.188
710.097,1.184
710.358,1.174
710.619,1.160
710.881,1.155
711.142,1.160
711.403,1.158
711.664,1.158
711.926,1.151
712.187,1.149
712.448,1.160
712.709,1.156
712.970,1.165
713.232,1.172
713.493,1.174
713.754,1.169
714.015,1.163
714.277,1.174
714.538,1.184
714.799,1.186
715.060,1.193
715.322,1.183
715.583,1.176
715.844,1.176
716.105,1.169
716.367,1.158
716.628,1.167
716.889,1.172
717.150,1.162
717.411,1.153
717.673,1.156
717.934,1.163
718.195,1.160
718.457,1.158
718.718,1.158
718.979,1.153
719.240,1.163
719.502,1.163
719.763,1.167
720.024,1.172
720.286,1.170
720.547,1.160
720.808,1.148
721.069,1.158
721.331,1.169
721.592,1.172
721.853,1.179
722.115,1.172
722.376,1.176
722.638,1.176
722.899,1.172
723.160,1.172
723.422,1.176
723.683,1.163
723.944,1.165
724.206,1.170
724.467,1.170
724.729,1.176
724.990,1.177
725.252,1.176
725.513,1.169
725.775,1.151
726.036,1.148
726.298,1.148
726.559,1.156
726.821,1.158
727.082,1.162
727.344,1.160
727.605,1.149
727.867,1.151
728.128,1.148
728.390,1.155
728.652,1.162
728.913,1.174
729.175,1.177
729.436,1.163
729.698,1.163
729.960,1.174
730.221,1.170
730.483,1.165
730.745,1.151
731.007,1.149
731.268,1.162
731.530,1.165
731.792,1.163
732.054,1.167
732.315,1.170
732.577,1.170
732.839,1.163
733.101,1.153
733.363,1.158
733.625,1.163
733.887,1.169
734.149,1.179
734.411,1.181
734.673,1.184
734.935,1.181
735.197,1.170
735.459,1.167
735.721,1.176
735.983,1.163
736.245,1.146
736.507,1.137
736.769,1.144
737.031,1.162
737.293,1.165
737.555,1.141
737.818,1.141
738.080,1.141
738.342,1.144
738.604,1.149
738.867,1.155
739.129,1.163
739.391,1.169
739.654,1.160
739.916,1.165
740.178,1.167
740.441,1.176
740.703,1.177
740.966,1.169
741.228,1.162
741.491,1.162
741.753,1.156
742.016,1.158
742.278,1.158
742.541,1.155
742.804,1.163
743.066,1.162
743.329,1.170
743.592,1.163
743.854,1.158
744.117,1.158
744.380,1.169
744.643,1.165
744.905,1.153
745.168,1.151
745.431,1.158
745.694,1.148
745.957,1.148
746.220,1.148
746.483,1.148
746.746,1.149
747.009,1.153
747.272,1.170
747.535,1.190
