Wavelength (nm),Intensity B6.3,,C:/Users/Brend/Desktop/LED Spectras v2/Blinds/-Interference/Spectrometer Data (Newer).sp,,,B6.3,
379.792,1.555,,2018-07-02 14:44:57,,Integration Time,100 ms,
380.000,1.528,,Analyze Light,,Number of Scans to Average,25,
380.209,1.528,,,,Smoothing,0,
380.418,1.546
380.627,1.557
380.837,1.557
381.048,1.571
381.259,1.572
381.471,1.567
381.683,1.575
381.896,1.581
382.110,1.583
382.324,1.577
382.538,1.601
382.753,1.625
382.969,1.613
383.185,1.593
383.402,1.590
383.619,1.589
383.837,1.612
384.055,1.619
384.274,1.641
384.493,1.636
384.712,1.639
384.932,1.644
385.153,1.647
385.374,1.641
385.596,1.635
385.818,1.648
386.040,1.667
386.263,1.668
386.487,1.668
386.710,1.674
386.935,1.668
387.159,1.656
387.385,1.664
387.610,1.658
387.836,1.653
388.063,1.670
388.289,1.679
388.517,1.682
388.744,1.685
388.972,1.685
389.201,1.690
389.430,1.682
389.659,1.690
389.889,1.694
390.119,1.699
390.349,1.697
390.580,1.703
390.811,1.708
391.042,1.706
391.274,1.714
391.507,1.722
391.739,1.716
391.972,1.705
392.205,1.714
392.439,1.720
392.673,1.725
392.907,1.738
393.142,1.743
393.377,1.763
393.612,1.769
393.848,1.781
394.084,1.775
394.320,1.770
394.557,1.774
394.794,1.784
395.031,1.786
395.269,1.795
395.507,1.796
395.745,1.798
395.983,1.792
396.222,1.793
396.461,1.812
396.700,1.830
396.940,1.841
397.180,1.841
397.420,1.833
397.660,1.821
397.901,1.813
398.142,1.804
398.383,1.818
398.625,1.807
398.866,1.810
399.108,1.841
399.351,1.864
399.593,1.871
399.836,1.841
400.079,1.842
400.322,1.847
400.566,1.844
400.809,1.847
401.053,1.851
401.298,1.862
401.542,1.865
401.787,1.877
402.031,1.882
402.277,1.880
402.522,1.877
402.767,1.891
403.013,1.885
403.259,1.876
403.505,1.879
403.752,1.888
403.998,1.891
404.245,1.903
404.492,1.922
404.739,1.926
404.986,1.922
405.234,1.926
405.482,1.931
405.730,1.918
405.978,1.926
406.226,1.935
406.475,1.926
406.723,1.925
406.972,1.925
407.221,1.915
407.470,1.929
407.720,1.935
407.969,1.938
408.219,1.928
408.469,1.958
408.719,1.963
408.969,1.947
409.219,1.951
409.470,1.980
409.720,1.978
409.971,1.980
410.222,1.996
410.473,2.012
410.724,2.005
410.976,2.007
411.227,2.004
411.479,2.002
411.731,1.999
411.983,2.001
412.235,2.009
412.487,2.016
412.740,2.021
412.992,2.021
413.245,2.024
413.497,2.024
413.750,2.031
414.003,2.036
414.257,2.016
414.510,2.010
414.763,2.022
415.017,2.022
415.270,2.012
415.524,2.021
415.778,2.021
416.032,2.031
416.286,2.039
416.540,2.045
416.794,2.045
417.049,2.054
417.303,2.048
417.558,2.042
417.812,2.047
418.067,2.042
418.322,2.034
418.577,2.051
418.832,2.054
419.088,2.048
419.343,2.038
419.598,2.045
419.854,2.044
420.109,2.053
420.365,2.059
420.621,2.054
420.876,2.045
421.132,2.056
421.388,2.054
421.645,2.065
421.901,2.067
422.157,2.073
422.413,2.057
422.670,2.070
422.926,2.071
423.183,2.070
423.439,2.060
423.696,2.085
423.953,2.105
424.210,2.137
424.467,2.140
424.724,2.126
424.981,2.123
425.238,2.121
425.495,2.137
425.753,2.164
426.010,2.167
426.267,2.179
426.525,2.190
426.782,2.219
427.040,2.221
427.298,2.253
427.555,2.277
427.813,2.312
428.071,2.334
428.329,2.350
428.587,2.372
428.845,2.393
429.103,2.421
429.361,2.451
429.619,2.476
429.878,2.520
430.136,2.564
430.394,2.616
430.653,2.648
430.911,2.727
431.170,2.795
431.428,2.856
431.687,2.903
431.946,2.975
432.204,3.027
432.463,3.118
432.722,3.202
432.981,3.277
433.240,3.356
433.499,3.469
433.758,3.544
434.017,3.652
434.276,3.759
434.535,3.883
434.794,3.996
435.053,4.127
435.312,4.234
435.572,4.376
435.831,4.527
436.090,4.699
436.350,4.852
436.609,5.050
436.869,5.217
437.128,5.391
437.388,5.566
437.647,5.755
437.907,5.963
438.166,6.209
438.426,6.427
438.686,6.662
438.946,6.902
439.205,7.146
439.465,7.402
439.725,7.700
439.985,7.990
440.245,8.288
440.505,8.556
440.765,8.881
441.025,9.190
441.285,9.544
441.545,9.884
441.805,10.250
442.065,10.633
442.325,11.047
442.585,11.441
442.846,11.874
443.106,12.314
443.366,12.833
443.626,13.318
443.887,13.837
444.147,14.422
444.407,15.002
444.668,15.580
444.928,16.200
445.189,16.865
445.449,17.596
445.710,18.284
445.970,19.034
446.231,19.800
446.491,20.672
446.752,21.540
447.012,22.457
447.273,23.382
447.534,24.377
447.794,25.385
448.055,26.393
448.316,27.500
448.577,28.646
448.837,29.829
449.098,31.000
449.359,32.210
449.620,33.462
449.881,34.718
450.142,35.951
450.403,37.212
450.664,38.559
450.924,39.940
451.185,41.290
451.446,42.668
451.707,44.054
451.969,45.392
452.230,46.737
452.491,48.027
452.752,49.321
453.013,50.571
453.274,51.767
453.535,52.857
453.796,53.912
454.058,54.902
454.319,55.810
454.580,56.683
454.841,57.416
455.103,58.082
455.364,58.646
455.625,59.125
455.887,59.518
456.148,59.802
456.409,59.989
456.671,60.116
456.932,60.089
457.194,59.911
457.455,59.666
457.716,59.350
457.978,58.944
458.239,58.449
458.501,57.854
458.763,57.169
459.024,56.439
459.286,55.598
459.547,54.712
459.809,53.794
460.071,52.808
460.332,51.803
460.594,50.734
460.856,49.608
461.117,48.524
461.379,47.418
461.641,46.358
461.903,45.266
462.164,44.196
462.426,43.098
462.688,42.048
462.950,41.033
463.212,40.040
463.474,39.034
463.736,38.135
463.998,37.212
464.260,36.372
464.522,35.542
464.784,34.792
465.046,34.043
465.308,33.367
465.570,32.740
465.832,32.099
466.094,31.523
466.356,30.945
466.618,30.401
466.880,29.834
467.142,29.301
467.405,28.839
467.667,28.378
467.929,27.900
468.191,27.460
468.454,27.027
468.716,26.557
468.978,26.116
469.241,25.632
469.503,25.168
469.765,24.728
470.028,24.330
470.290,23.918
470.552,23.500
470.815,23.049
471.077,22.637
471.340,22.221
471.602,21.806
471.865,21.407
472.128,20.991
472.390,20.574
472.653,20.160
472.915,19.745
473.178,19.325
473.441,18.881
473.703,18.426
473.966,18.010
474.229,17.564
474.492,17.094
474.755,16.668
475.017,16.255
475.280,15.888
475.543,15.484
475.806,15.095
476.069,14.669
476.332,14.272
476.595,13.877
476.858,13.512
477.121,13.129
477.384,12.758
477.647,12.393
477.910,12.063
478.173,11.740
478.436,11.455
478.699,11.140
478.962,10.839
479.226,10.540
479.489,10.302
479.752,10.047
480.015,9.815
480.279,9.531
480.542,9.272
480.805,9.023
481.069,8.810
481.332,8.558
481.595,8.365
481.859,8.179
482.122,8.013
482.386,7.824
482.649,7.625
482.913,7.440
483.177,7.245
483.440,7.059
483.704,6.903
483.967,6.740
484.231,6.615
484.495,6.445
484.759,6.320
485.022,6.169
485.286,6.024
485.550,5.856
485.814,5.733
486.078,5.575
486.342,5.444
486.606,5.314
486.869,5.214
487.133,5.085
487.397,4.989
487.662,4.863
487.926,4.741
488.190,4.594
488.454,4.489
488.718,4.368
488.982,4.280
489.246,4.165
489.511,4.067
489.775,3.941
490.039,3.861
490.304,3.770
490.568,3.671
490.832,3.564
491.097,3.486
491.361,3.400
491.626,3.327
491.890,3.252
492.155,3.191
492.419,3.088
492.684,3.028
492.949,2.937
493.213,2.866
493.478,2.814
493.743,2.764
494.008,2.676
494.272,2.605
494.537,2.553
494.802,2.515
495.067,2.465
495.332,2.428
495.597,2.393
495.862,2.367
496.127,2.323
496.392,2.299
496.657,2.248
496.922,2.208
497.187,2.167
497.452,2.143
497.718,2.115
497.983,2.114
498.248,2.076
498.513,2.041
498.779,2.022
499.044,2.024
499.310,1.999
499.575,1.958
499.841,1.932
500.106,1.909
500.372,1.897
500.637,1.871
500.903,1.857
501.168,1.856
501.434,1.833
501.700,1.810
501.966,1.780
502.231,1.774
502.497,1.754
502.763,1.743
503.029,1.717
503.295,1.702
503.561,1.693
503.827,1.688
504.093,1.683
504.359,1.671
504.625,1.662
504.891,1.656
505.157,1.636
505.423,1.636
505.690,1.618
505.956,1.593
506.222,1.586
506.489,1.589
506.755,1.603
507.021,1.601
507.288,1.584
507.554,1.584
507.821,1.574
508.087,1.566
508.354,1.564
508.621,1.575
508.887,1.551
509.154,1.538
509.421,1.535
509.687,1.523
509.954,1.497
510.221,1.485
510.488,1.470
510.755,1.479
511.022,1.491
511.289,1.493
511.556,1.474
511.823,1.468
512.090,1.465
512.357,1.473
512.624,1.455
512.891,1.447
513.159,1.441
513.426,1.430
513.693,1.422
513.960,1.427
514.228,1.435
514.495,1.432
514.763,1.430
515.030,1.418
515.298,1.404
515.565,1.400
515.833,1.404
516.100,1.409
516.368,1.401
516.636,1.398
516.904,1.392
517.171,1.395
517.439,1.393
517.707,1.381
517.975,1.384
518.243,1.389
518.511,1.384
518.779,1.374
519.047,1.363
519.315,1.380
519.583,1.366
519.851,1.348
520.119,1.339
520.387,1.348
520.656,1.343
520.924,1.355
521.192,1.358
521.461,1.363
521.729,1.366
521.997,1.369
522.266,1.361
522.534,1.345
522.803,1.351
523.071,1.351
523.340,1.339
523.609,1.328
523.877,1.326
524.146,1.329
524.415,1.326
524.684,1.331
524.952,1.332
525.221,1.329
525.490,1.337
525.759,1.354
526.028,1.343
526.297,1.328
526.566,1.317
526.835,1.316
527.104,1.325
527.373,1.329
527.642,1.323
527.912,1.313
528.181,1.303
528.450,1.306
528.719,1.311
528.989,1.320
529.258,1.340
529.528,1.342
529.797,1.325
530.067,1.326
530.336,1.329
530.606,1.319
530.875,1.313
531.145,1.311
531.414,1.311
531.684,1.329
531.954,1.329
532.224,1.310
532.493,1.305
532.763,1.293
533.033,1.288
533.303,1.291
533.573,1.300
533.843,1.299
534.113,1.288
534.383,1.296
534.653,1.285
534.923,1.288
535.193,1.299
535.463,1.302
535.733,1.317
536.004,1.316
536.274,1.310
536.544,1.305
536.814,1.294
537.085,1.282
537.355,1.282
537.626,1.291
537.896,1.297
538.166,1.296
538.437,1.290
538.707,1.288
538.978,1.285
539.249,1.290
539.519,1.299
539.790,1.290
540.061,1.270
540.331,1.279
540.602,1.294
540.873,1.293
541.144,1.294
541.414,1.290
541.685,1.288
541.956,1.281
542.227,1.276
542.498,1.271
542.769,1.265
543.040,1.276
543.311,1.290
543.582,1.302
543.853,1.300
544.124,1.299
544.396,1.299
544.667,1.294
544.938,1.282
545.209,1.284
545.480,1.270
545.752,1.279
546.023,1.285
546.294,1.290
546.566,1.285
546.837,1.276
547.109,1.268
547.380,1.268
547.652,1.270
547.923,1.270
548.195,1.284
548.466,1.296
548.738,1.300
549.009,1.305
549.281,1.290
549.553,1.285
549.824,1.276
550.096,1.264
550.368,1.270
550.640,1.276
550.911,1.270
551.183,1.290
551.455,1.314
551.727,1.322
551.999,1.320
552.271,1.300
552.543,1.285
552.815,1.277
553.087,1.270
553.359,1.290
553.631,1.294
553.903,1.291
554.175,1.296
554.447,1.303
554.719,1.303
554.991,1.293
555.263,1.285
555.535,1.284
555.808,1.287
556.080,1.285
556.352,1.268
556.624,1.268
556.897,1.271
557.169,1.267
557.441,1.268
557.714,1.265
557.986,1.262
558.258,1.273
558.531,1.277
558.803,1.284
559.076,1.282
559.348,1.279
559.621,1.271
559.893,1.271
560.166,1.277
560.438,1.274
560.711,1.277
560.983,1.274
561.256,1.267
561.528,1.274
561.801,1.279
562.074,1.277
562.346,1.281
562.619,1.302
562.892,1.302
563.164,1.277
563.437,1.277
563.710,1.288
563.983,1.273
564.255,1.253
564.528,1.262
564.801,1.284
565.074,1.297
565.346,1.282
565.619,1.271
565.892,1.281
566.165,1.287
566.438,1.282
566.711,1.274
566.984,1.271
567.257,1.273
567.529,1.267
567.802,1.267
568.075,1.287
568.348,1.290
568.621,1.284
568.894,1.284
569.167,1.273
569.440,1.271
569.713,1.264
569.986,1.247
570.259,1.256
570.532,1.256
570.805,1.262
571.078,1.273
571.351,1.273
571.625,1.273
571.898,1.265
572.171,1.244
572.444,1.241
572.717,1.253
572.990,1.279
573.263,1.281
573.536,1.265
573.809,1.259
574.083,1.250
574.356,1.248
574.629,1.259
574.902,1.268
575.175,1.264
575.448,1.258
575.721,1.252
575.995,1.252
576.268,1.252
576.541,1.247
576.814,1.259
577.087,1.262
577.361,1.270
577.634,1.274
577.907,1.268
578.180,1.244
578.453,1.247
578.727,1.258
579.000,1.252
579.273,1.252
579.546,1.267
579.820,1.273
580.093,1.271
580.366,1.259
580.639,1.248
580.913,1.247
581.186,1.252
581.459,1.244
581.732,1.236
582.005,1.233
582.279,1.238
582.552,1.233
582.825,1.235
583.098,1.238
583.372,1.241
583.645,1.250
583.918,1.259
584.191,1.265
584.464,1.264
584.738,1.252
585.011,1.252
585.284,1.253
585.557,1.247
585.831,1.252
586.104,1.264
586.377,1.276
586.650,1.288
586.923,1.277
587.196,1.276
587.470,1.270
587.743,1.258
588.016,1.262
588.289,1.256
588.562,1.262
588.835,1.267
589.109,1.258
589.382,1.255
589.655,1.253
589.928,1.255
590.201,1.255
590.474,1.261
590.747,1.277
591.020,1.287
591.293,1.279
591.567,1.279
591.840,1.270
592.113,1.255
592.386,1.252
592.659,1.241
592.932,1.235
593.205,1.244
593.478,1.250
593.751,1.239
594.024,1.241
594.297,1.241
594.570,1.235
594.843,1.247
595.116,1.261
595.389,1.258
595.662,1.253
595.934,1.248
596.207,1.256
596.480,1.274
596.753,1.279
597.026,1.273
597.299,1.268
597.572,1.267
597.844,1.259
598.117,1.258
598.390,1.253
598.663,1.252
598.936,1.245
599.208,1.247
599.481,1.244
599.754,1.239
600.026,1.244
600.299,1.232
600.572,1.229
600.844,1.227
601.117,1.233
601.390,1.232
601.662,1.242
601.935,1.236
602.207,1.221
602.480,1.232
602.752,1.241
603.025,1.233
603.297,1.229
603.570,1.232
603.842,1.244
604.115,1.256
604.387,1.253
604.660,1.250
604.932,1.247
605.204,1.255
605.477,1.261
605.749,1.267
606.021,1.281
606.294,1.285
606.566,1.270
606.838,1.241
607.110,1.245
607.383,1.250
607.655,1.245
607.927,1.247
608.199,1.252
608.471,1.250
608.743,1.242
609.015,1.241
609.287,1.244
609.559,1.247
609.831,1.248
610.103,1.242
610.375,1.250
610.647,1.247
610.919,1.239
611.191,1.238
611.463,1.244
611.735,1.245
612.007,1.245
612.278,1.244
612.550,1.242
612.822,1.238
613.094,1.238
613.365,1.235
613.637,1.238
613.909,1.236
614.180,1.229
614.452,1.236
614.723,1.242
614.995,1.235
615.266,1.224
615.538,1.235
615.809,1.244
616.081,1.253
616.352,1.248
616.623,1.241
616.895,1.233
617.166,1.235
617.437,1.238
617.709,1.235
617.980,1.235
618.251,1.245
618.522,1.256
618.793,1.262
619.065,1.267
619.336,1.279
619.607,1.259
619.878,1.256
620.149,1.273
620.420,1.274
620.691,1.261
620.962,1.253
621.232,1.267
621.503,1.268
621.774,1.255
622.045,1.255
622.316,1.261
622.586,1.270
622.857,1.290
623.128,1.287
623.398,1.267
623.669,1.262
623.940,1.258
624.210,1.239
624.481,1.241
624.751,1.250
625.021,1.248
625.292,1.248
625.562,1.248
625.833,1.250
626.103,1.244
626.373,1.233
626.643,1.229
626.914,1.238
627.184,1.245
627.454,1.245
627.724,1.247
627.994,1.252
628.264,1.253
628.534,1.253
628.804,1.241
629.074,1.247
629.344,1.262
629.614,1.259
629.884,1.256
630.154,1.248
630.424,1.239
630.693,1.236
630.963,1.224
631.233,1.215
631.502,1.216
631.772,1.232
632.041,1.253
632.311,1.253
632.581,1.244
632.850,1.245
633.119,1.235
633.389,1.223
633.658,1.219
633.928,1.226
634.197,1.236
634.466,1.247
634.735,1.259
635.004,1.256
635.274,1.235
635.543,1.233
635.812,1.233
636.081,1.229
636.350,1.233
636.619,1.247
636.888,1.252
637.157,1.248
637.426,1.253
637.694,1.253
637.963,1.245
638.232,1.244
638.501,1.238
638.769,1.235
639.038,1.247
639.307,1.255
639.575,1.258
639.844,1.253
640.112,1.244
640.381,1.238
640.649,1.236
640.917,1.244
641.186,1.245
641.454,1.236
641.722,1.242
641.991,1.242
642.259,1.236
642.527,1.229
642.795,1.239
643.063,1.241
643.331,1.226
643.599,1.236
643.867,1.235
644.135,1.230
644.403,1.238
644.671,1.247
644.939,1.244
645.206,1.252
645.474,1.239
645.742,1.236
646.009,1.224
646.277,1.216
646.545,1.232
646.812,1.244
647.080,1.258
647.347,1.256
647.615,1.253
647.882,1.244
648.149,1.219
648.417,1.218
648.684,1.223
648.951,1.233
649.219,1.247
649.486,1.252
649.753,1.245
650.020,1.244
650.287,1.232
650.554,1.224
650.821,1.223
651.088,1.218
651.355,1.216
651.622,1.229
651.889,1.224
652.155,1.226
652.422,1.224
652.689,1.238
652.956,1.255
653.222,1.252
653.489,1.265
653.755,1.282
654.022,1.267
654.288,1.242
654.555,1.232
654.821,1.235
655.088,1.245
655.354,1.259
655.620,1.262
655.887,1.259
656.153,1.256
656.419,1.258
656.685,1.253
656.951,1.252
657.217,1.244
657.483,1.235
657.749,1.227
658.015,1.239
658.281,1.242
658.547,1.247
658.813,1.241
659.079,1.238
659.345,1.241
659.610,1.239
659.876,1.235
660.142,1.230
660.407,1.238
660.673,1.242
660.939,1.248
661.204,1.247
661.470,1.227
661.735,1.219
662.000,1.224
662.266,1.221
662.531,1.224
662.796,1.226
663.062,1.226
663.327,1.210
663.592,1.212
663.857,1.226
664.122,1.223
664.388,1.221
664.653,1.221
664.918,1.233
665.183,1.235
665.448,1.232
665.712,1.239
665.977,1.239
666.242,1.241
666.507,1.238
666.772,1.216
667.037,1.213
667.301,1.218
667.566,1.223
667.831,1.230
668.095,1.230
668.360,1.232
668.624,1.233
668.889,1.219
669.153,1.230
669.418,1.229
669.682,1.230
669.946,1.233
670.211,1.244
670.475,1.253
670.739,1.259
671.004,1.274
671.268,1.281
671.532,1.311
671.796,1.306
672.060,1.259
672.324,1.259
672.588,1.270
672.852,1.270
673.116,1.277
673.380,1.320
673.644,1.313
673.908,1.236
674.172,1.238
674.436,1.239
674.700,1.247
674.963,1.241
675.227,1.247
675.491,1.239
675.754,1.221
676.018,1.219
676.282,1.230
676.545,1.244
676.809,1.233
677.072,1.221
677.336,1.212
677.599,1.224
677.863,1.226
678.126,1.226
678.389,1.233
678.653,1.242
678.916,1.239
679.179,1.229
679.442,1.226
679.706,1.232
679.969,1.233
680.232,1.229
680.495,1.229
680.758,1.242
681.021,1.241
681.284,1.233
681.547,1.218
681.810,1.221
682.073,1.236
682.336,1.247
682.599,1.241
682.862,1.226
683.125,1.236
683.388,1.242
683.651,1.250
683.913,1.245
684.176,1.227
684.439,1.218
684.702,1.213
684.964,1.212
685.227,1.216
685.490,1.226
685.752,1.235
686.015,1.250
686.277,1.242
686.540,1.227
686.802,1.223
687.065,1.226
687.327,1.238
687.590,1.236
687.852,1.232
688.115,1.219
688.377,1.215
688.639,1.226
688.902,1.233
689.164,1.235
689.426,1.239
689.689,1.245
689.951,1.245
690.213,1.239
690.475,1.242
690.737,1.242
691.000,1.226
691.262,1.226
691.524,1.226
691.786,1.229
692.048,1.247
692.310,1.252
692.572,1.229
692.834,1.215
693.096,1.215
693.358,1.232
693.620,1.241
693.882,1.248
694.144,1.248
694.406,1.245
694.668,1.236
694.930,1.235
695.192,1.230
695.453,1.223
695.715,1.229
695.977,1.230
696.239,1.219
696.501,1.219
696.762,1.227
697.024,1.229
697.286,1.216
697.548,1.207
697.809,1.213
698.071,1.221
698.333,1.223
698.594,1.224
698.856,1.233
699.118,1.239
699.379,1.242
699.641,1.241
699.902,1.239
700.164,1.238
700.426,1.233
700.687,1.235
700.949,1.233
701.210,1.235
701.472,1.224
701.733,1.210
701.995,1.210
702.256,1.221
702.518,1.218
702.779,1.213
703.041,1.219
703.302,1.244
703.563,1.238
703.825,1.219
704.086,1.219
704.348,1.226
704.609,1.229
704.871,1.239
705.132,1.248
705.393,1.241
705.655,1.213
705.916,1.221
706.177,1.232
706.439,1.232
706.700,1.232
706.961,1.221
707.223,1.216
707.484,1.212
707.745,1.194
708.007,1.198
708.268,1.203
708.529,1.192
708.790,1.174
709.052,1.171
709.313,1.169
709.574,1.178
709.835,1.184
710.097,1.181
710.358,1.175
710.619,1.154
710.881,1.143
711.142,1.139
711.403,1.142
711.664,1.143
711.926,1.149
712.187,1.145
712.448,1.157
712.709,1.169
712.970,1.177
713.232,1.180
713.493,1.169
713.754,1.169
714.015,1.174
714.277,1.189
714.538,1.184
714.799,1.190
715.060,1.194
715.322,1.186
715.583,1.187
715.844,1.189
716.105,1.178
716.367,1.168
716.628,1.166
716.889,1.168
717.150,1.165
717.411,1.157
717.673,1.151
717.934,1.161
718.195,1.166
718.457,1.168
718.718,1.161
718.979,1.154
719.240,1.166
719.502,1.172
719.763,1.175
720.024,1.172
720.286,1.175
720.547,1.171
720.808,1.160
721.069,1.165
721.331,1.165
721.592,1.169
721.853,1.177
722.115,1.168
722.376,1.168
722.638,1.172
722.899,1.169
723.160,1.165
723.422,1.151
723.683,1.145
723.944,1.151
724.206,1.158
724.467,1.158
724.729,1.157
724.990,1.165
725.252,1.175
725.513,1.175
725.775,1.157
726.036,1.136
726.298,1.139
726.559,1.152
726.821,1.158
727.082,1.149
727.344,1.157
727.605,1.157
727.867,1.152
728.128,1.151
728.390,1.148
728.652,1.145
728.913,1.165
729.175,1.172
729.436,1.171
729.698,1.163
729.960,1.175
730.221,1.177
730.483,1.174
730.745,1.155
731.007,1.160
731.268,1.165
731.530,1.161
731.792,1.163
732.054,1.169
732.315,1.175
732.577,1.174
732.839,1.169
733.101,1.155
733.363,1.149
733.625,1.161
733.887,1.161
734.149,1.158
734.411,1.157
734.673,1.165
734.935,1.174
735.197,1.169
735.459,1.161
735.721,1.177
735.983,1.174
736.245,1.166
736.507,1.158
736.769,1.174
737.031,1.178
737.293,1.169
737.555,1.152
737.818,1.149
738.080,1.152
738.342,1.146
738.604,1.142
738.867,1.149
739.129,1.154
739.391,1.151
739.654,1.151
739.916,1.154
740.178,1.151
740.441,1.155
740.703,1.166
740.966,1.152
741.228,1.155
741.491,1.158
741.753,1.149
742.016,1.161
742.278,1.161
742.541,1.154
742.804,1.151
743.066,1.154
743.329,1.157
743.592,1.152
743.854,1.151
744.117,1.171
744.380,1.178
744.643,1.171
744.905,1.160
745.168,1.160
745.431,1.160
745.694,1.154
745.957,1.142
746.220,1.139
746.483,1.142
746.746,1.148
747.009,1.145
747.272,1.161
747.535,1.180
