Wavelength (nm),Intensity B9.2,,C:/Users/Brend/Desktop/LED Spectras v2/Blinds/-Interference/Spectrometer Data (Newer).sp,,,B9.2,
379.792,1.730,,2018-07-02 14:44:06,,Integration Time,100 ms,
380.000,1.718,,Analyze Light,,Number of Scans to Average,25,
380.209,1.724,,,,Smoothing,0,
380.418,1.734
380.627,1.741
380.837,1.745
381.048,1.754
381.259,1.754
381.471,1.738
381.683,1.742
381.896,1.748
382.110,1.748
382.324,1.754
382.538,1.780
382.753,1.788
382.969,1.793
383.185,1.780
383.402,1.781
383.619,1.773
383.837,1.783
384.055,1.794
384.274,1.820
384.493,1.829
384.712,1.830
384.932,1.833
385.153,1.853
385.374,1.846
385.596,1.844
385.818,1.856
386.040,1.882
386.263,1.895
386.487,1.895
386.710,1.889
386.935,1.886
387.159,1.875
387.385,1.875
387.610,1.875
387.836,1.875
388.063,1.883
388.289,1.898
388.517,1.896
388.744,1.889
388.972,1.895
389.201,1.926
389.430,1.929
389.659,1.932
389.889,1.946
390.119,1.949
390.349,1.944
390.580,1.955
390.811,1.961
391.042,1.956
391.274,1.951
391.507,1.965
391.739,1.964
391.972,1.961
392.205,1.959
392.439,1.975
392.673,1.987
392.907,1.995
393.142,2.005
393.377,2.024
393.612,2.028
393.848,2.047
394.084,2.041
394.320,2.034
394.557,2.034
394.794,2.041
395.031,2.053
395.269,2.070
395.507,2.083
395.745,2.083
395.983,2.080
396.222,2.086
396.461,2.097
396.700,2.113
396.940,2.127
397.180,2.120
397.420,2.112
397.660,2.119
397.901,2.117
398.142,2.116
398.383,2.119
398.625,2.112
398.866,2.116
399.108,2.146
399.351,2.171
399.593,2.196
399.836,2.178
400.079,2.171
400.322,2.171
400.566,2.171
400.809,2.162
401.053,2.163
401.298,2.179
401.542,2.176
401.787,2.189
402.031,2.216
402.277,2.216
402.522,2.224
402.767,2.218
403.013,2.228
403.259,2.215
403.505,2.219
403.752,2.216
403.998,2.224
404.245,2.229
404.492,2.261
404.739,2.265
404.986,2.265
405.234,2.274
405.482,2.278
405.730,2.271
405.978,2.272
406.226,2.283
406.475,2.270
406.723,2.264
406.972,2.285
407.221,2.293
407.470,2.300
407.720,2.310
407.969,2.317
408.219,2.304
408.469,2.320
408.719,2.336
408.969,2.334
409.219,2.349
409.470,2.359
409.720,2.347
409.971,2.359
410.222,2.369
410.473,2.389
410.724,2.390
410.976,2.397
411.227,2.412
411.479,2.422
411.731,2.419
411.983,2.410
412.235,2.408
412.487,2.410
412.740,2.410
412.992,2.416
413.245,2.436
413.497,2.453
413.750,2.443
414.003,2.446
414.257,2.425
414.510,2.443
414.763,2.445
415.017,2.462
415.270,2.468
415.524,2.487
415.778,2.471
416.032,2.461
416.286,2.459
416.540,2.489
416.794,2.492
417.049,2.494
417.303,2.495
417.558,2.508
417.812,2.511
418.067,2.498
418.322,2.492
418.577,2.505
418.832,2.508
419.088,2.505
419.343,2.502
419.598,2.520
419.854,2.507
420.109,2.525
420.365,2.524
420.621,2.527
420.876,2.524
421.132,2.537
421.388,2.538
421.645,2.541
421.901,2.533
422.157,2.531
422.413,2.540
422.670,2.548
422.926,2.547
423.183,2.555
423.439,2.553
423.696,2.576
423.953,2.590
424.210,2.626
424.467,2.637
424.724,2.627
424.981,2.623
425.238,2.619
425.495,2.640
425.753,2.682
426.010,2.696
426.267,2.708
426.525,2.716
426.782,2.757
427.040,2.780
427.298,2.823
427.555,2.843
427.813,2.879
428.071,2.893
428.329,2.936
428.587,2.982
428.845,3.031
429.103,3.083
429.361,3.139
429.619,3.189
429.878,3.256
430.136,3.298
430.394,3.360
430.653,3.426
430.911,3.527
431.170,3.618
431.428,3.715
431.687,3.788
431.946,3.887
432.204,3.962
432.463,4.070
432.722,4.199
432.981,4.319
433.240,4.423
433.499,4.572
433.758,4.717
434.017,4.874
434.276,5.013
434.535,5.177
434.794,5.326
435.053,5.510
435.312,5.686
435.572,5.875
435.831,6.052
436.090,6.275
436.350,6.483
436.609,6.718
436.869,6.931
437.128,7.171
437.388,7.402
437.647,7.671
437.907,7.962
438.166,8.260
438.426,8.536
438.686,8.803
438.946,9.084
439.205,9.416
439.465,9.726
439.725,10.083
439.985,10.439
440.245,10.797
440.505,11.166
440.765,11.555
441.025,11.908
441.285,12.290
441.545,12.723
441.805,13.160
442.065,13.583
442.325,14.060
442.585,14.536
442.846,15.040
443.106,15.558
443.366,16.130
443.626,16.677
443.887,17.276
444.147,17.898
444.407,18.523
444.668,19.184
444.928,19.855
445.189,20.577
445.449,21.323
445.710,22.119
445.970,22.917
446.231,23.798
446.491,24.703
446.752,25.678
447.012,26.684
447.273,27.679
447.534,28.764
447.794,29.890
448.055,31.038
448.316,32.260
448.577,33.573
448.837,34.954
449.098,36.359
449.359,37.776
449.620,39.249
449.881,40.754
450.142,42.271
450.403,43.853
450.664,45.533
450.924,47.243
451.185,48.952
451.446,50.687
451.707,52.489
451.969,54.293
452.230,56.063
452.491,57.805
452.752,59.527
453.013,61.207
453.274,62.828
453.535,64.401
453.796,65.947
454.058,67.388
454.319,68.715
454.580,69.962
454.841,71.153
455.103,72.190
455.364,73.078
455.625,73.908
455.887,74.626
456.148,75.149
456.409,75.576
456.671,75.836
456.932,75.910
457.194,75.846
457.455,75.683
457.716,75.350
457.978,74.840
458.239,74.251
458.501,73.529
458.763,72.698
459.024,71.742
459.286,70.700
459.547,69.524
459.809,68.264
460.071,66.845
460.332,65.395
460.594,63.946
460.856,62.474
461.117,60.997
461.379,59.502
461.641,58.074
461.903,56.620
462.164,55.175
462.426,53.754
462.688,52.367
462.950,51.023
463.212,49.693
463.474,48.439
463.736,47.195
463.998,45.981
464.260,44.887
464.522,43.920
464.784,42.975
465.046,42.093
465.308,41.240
465.570,40.425
465.832,39.650
466.094,38.926
466.356,38.258
466.618,37.620
466.880,36.973
467.142,36.373
467.405,35.767
467.667,35.235
467.929,34.734
468.191,34.189
468.454,33.721
468.716,33.201
468.978,32.650
469.241,32.148
469.503,31.605
469.765,31.087
470.028,30.585
470.290,30.107
470.552,29.630
470.815,29.145
471.077,28.625
471.340,28.128
471.602,27.603
471.865,27.098
472.128,26.608
472.390,26.063
472.653,25.549
472.915,25.029
473.178,24.472
473.441,23.942
473.703,23.364
473.966,22.795
474.229,22.268
474.492,21.695
474.755,21.133
475.017,20.586
475.280,20.075
475.543,19.555
475.806,19.045
476.069,18.512
476.332,17.996
476.595,17.493
476.858,16.992
477.121,16.501
477.384,16.051
477.647,15.616
477.910,15.191
478.173,14.810
478.436,14.428
478.699,14.007
478.962,13.631
479.226,13.284
479.489,12.979
479.752,12.631
480.015,12.293
480.279,11.974
480.542,11.691
480.805,11.388
481.069,11.115
481.332,10.817
481.595,10.565
481.859,10.324
482.122,10.139
482.386,9.897
482.649,9.652
482.913,9.405
483.177,9.179
483.440,8.951
483.704,8.765
483.967,8.590
484.231,8.432
484.495,8.238
484.759,8.076
485.022,7.882
485.286,7.684
485.550,7.497
485.814,7.325
486.078,7.126
486.342,6.986
486.606,6.803
486.869,6.670
487.133,6.539
487.397,6.414
487.662,6.262
487.926,6.095
488.190,5.914
488.454,5.767
488.718,5.607
488.982,5.479
489.246,5.325
489.511,5.222
489.775,5.072
490.039,4.934
490.304,4.809
490.568,4.689
490.832,4.532
491.097,4.452
491.361,4.327
491.626,4.213
491.890,4.101
492.155,3.992
492.419,3.867
492.684,3.798
492.949,3.679
493.213,3.575
493.478,3.506
493.743,3.456
494.008,3.348
494.272,3.254
494.537,3.179
494.802,3.113
495.067,3.018
495.332,2.969
495.597,2.909
495.862,2.869
496.127,2.781
496.392,2.734
496.657,2.675
496.922,2.622
497.187,2.571
497.452,2.547
497.718,2.507
497.983,2.487
498.248,2.443
498.513,2.389
498.779,2.352
499.044,2.340
499.310,2.310
499.575,2.264
499.841,2.235
500.106,2.209
500.372,2.172
500.637,2.143
500.903,2.137
501.168,2.132
501.434,2.097
501.700,2.066
501.966,2.027
502.231,2.008
502.497,1.981
502.763,1.956
503.029,1.921
503.295,1.903
503.561,1.902
503.827,1.893
504.093,1.886
504.359,1.872
504.625,1.857
504.891,1.865
505.157,1.843
505.423,1.840
505.690,1.820
505.956,1.787
506.222,1.774
506.489,1.768
506.755,1.773
507.021,1.767
507.288,1.760
507.554,1.754
507.821,1.728
508.087,1.718
508.354,1.715
508.621,1.715
508.887,1.698
509.154,1.688
509.421,1.685
509.687,1.673
509.954,1.652
510.221,1.649
510.488,1.628
510.755,1.638
511.022,1.649
511.289,1.646
511.556,1.613
511.823,1.610
512.090,1.603
512.357,1.607
512.624,1.593
512.891,1.596
513.159,1.587
513.426,1.574
513.693,1.560
513.960,1.563
514.228,1.564
514.495,1.566
514.763,1.564
515.030,1.551
515.298,1.536
515.565,1.536
515.833,1.543
516.100,1.530
516.368,1.517
516.636,1.513
516.904,1.504
517.171,1.507
517.439,1.511
517.707,1.513
517.975,1.498
518.243,1.494
518.511,1.494
518.779,1.470
519.047,1.451
519.315,1.477
519.583,1.472
519.851,1.457
520.119,1.448
520.387,1.452
520.656,1.442
520.924,1.445
521.192,1.454
521.461,1.458
521.729,1.452
521.997,1.454
522.266,1.455
522.534,1.452
522.803,1.449
523.071,1.455
523.340,1.444
523.609,1.422
523.877,1.419
524.146,1.428
524.415,1.424
524.684,1.434
524.952,1.428
525.221,1.416
525.490,1.419
525.759,1.439
526.028,1.435
526.297,1.426
526.566,1.416
526.835,1.412
527.104,1.408
527.373,1.421
527.642,1.426
527.912,1.419
528.181,1.413
528.450,1.403
528.719,1.409
528.989,1.415
529.258,1.429
529.528,1.432
529.797,1.415
530.067,1.406
530.336,1.416
530.606,1.408
530.875,1.396
531.145,1.391
531.414,1.401
531.684,1.419
531.954,1.415
532.224,1.403
532.493,1.388
532.763,1.368
533.033,1.369
533.303,1.380
533.573,1.392
533.843,1.392
534.113,1.375
534.383,1.380
534.653,1.375
534.923,1.389
535.193,1.399
535.463,1.392
535.733,1.401
536.004,1.412
536.274,1.416
536.544,1.412
536.814,1.399
537.085,1.389
537.355,1.386
537.626,1.393
537.896,1.392
538.166,1.393
538.437,1.391
538.707,1.378
538.978,1.372
539.249,1.388
539.519,1.393
539.790,1.380
540.061,1.359
540.331,1.373
540.602,1.389
540.873,1.386
541.144,1.378
541.414,1.382
541.685,1.378
541.956,1.375
542.227,1.369
542.498,1.365
542.769,1.357
543.040,1.366
543.311,1.379
543.582,1.392
543.853,1.389
544.124,1.391
544.396,1.392
544.667,1.393
544.938,1.385
545.209,1.379
545.480,1.352
545.752,1.365
546.023,1.376
546.294,1.375
546.566,1.366
546.837,1.366
547.109,1.362
547.380,1.355
547.652,1.356
547.923,1.355
548.195,1.366
548.466,1.376
548.738,1.393
549.009,1.399
549.281,1.388
549.553,1.378
549.824,1.365
550.096,1.359
550.368,1.355
550.640,1.360
550.911,1.353
551.183,1.363
551.455,1.395
551.727,1.409
551.999,1.408
552.271,1.386
552.543,1.372
552.815,1.376
553.087,1.376
553.359,1.379
553.631,1.378
553.903,1.370
554.175,1.380
554.447,1.383
554.719,1.376
554.991,1.376
555.263,1.378
555.535,1.376
555.808,1.373
556.080,1.370
556.352,1.357
556.624,1.356
556.897,1.356
557.169,1.357
557.441,1.357
557.714,1.355
557.986,1.355
558.258,1.356
558.531,1.352
558.803,1.360
559.076,1.359
559.348,1.360
559.621,1.347
559.893,1.346
560.166,1.353
560.438,1.340
560.711,1.342
560.983,1.345
561.256,1.346
561.528,1.355
561.801,1.365
562.074,1.362
562.346,1.373
562.619,1.388
562.892,1.391
563.164,1.379
563.437,1.369
563.710,1.365
563.983,1.352
564.255,1.342
564.528,1.342
564.801,1.366
565.074,1.372
565.346,1.357
565.619,1.345
565.892,1.365
566.165,1.378
566.438,1.360
566.711,1.342
566.984,1.345
567.257,1.342
567.529,1.346
567.802,1.360
568.075,1.372
568.348,1.375
568.621,1.366
568.894,1.363
569.167,1.357
569.440,1.355
569.713,1.342
569.986,1.330
570.259,1.332
570.532,1.336
570.805,1.343
571.078,1.356
571.351,1.357
571.625,1.362
571.898,1.368
572.171,1.349
572.444,1.334
572.717,1.339
572.990,1.355
573.263,1.359
573.536,1.342
573.809,1.330
574.083,1.319
574.356,1.323
574.629,1.345
574.902,1.362
575.175,1.360
575.448,1.350
575.721,1.339
575.995,1.342
576.268,1.347
576.541,1.343
576.814,1.352
577.087,1.356
577.361,1.356
577.634,1.359
577.907,1.355
578.180,1.332
578.453,1.322
578.727,1.329
579.000,1.332
579.273,1.319
579.546,1.334
579.820,1.346
580.093,1.356
580.366,1.346
580.639,1.334
580.913,1.333
581.186,1.339
581.459,1.334
581.732,1.330
582.005,1.317
582.279,1.310
582.552,1.314
582.825,1.319
583.098,1.322
583.372,1.332
583.645,1.347
583.918,1.345
584.191,1.340
584.464,1.334
584.738,1.332
585.011,1.340
585.284,1.339
585.557,1.333
585.831,1.327
586.104,1.336
586.377,1.355
586.650,1.378
586.923,1.370
587.196,1.360
587.470,1.340
587.743,1.330
588.016,1.327
588.289,1.329
588.562,1.333
588.835,1.343
589.109,1.332
589.382,1.323
589.655,1.320
589.928,1.319
590.201,1.320
590.474,1.320
590.747,1.336
591.020,1.340
591.293,1.347
591.567,1.352
591.840,1.353
592.113,1.347
592.386,1.342
592.659,1.329
592.932,1.324
593.205,1.329
593.478,1.333
593.751,1.323
594.024,1.320
594.297,1.310
594.570,1.301
594.843,1.309
595.116,1.336
595.389,1.339
595.662,1.329
595.934,1.329
596.207,1.334
596.480,1.340
596.753,1.350
597.026,1.350
597.299,1.346
597.572,1.349
597.844,1.337
598.117,1.319
598.390,1.314
598.663,1.320
598.936,1.317
599.208,1.327
599.481,1.337
599.754,1.339
600.026,1.342
600.299,1.324
600.572,1.320
600.844,1.323
601.117,1.316
601.390,1.304
601.662,1.310
601.935,1.309
602.207,1.309
602.480,1.326
602.752,1.337
603.025,1.326
603.297,1.319
603.570,1.322
603.842,1.334
604.115,1.349
604.387,1.343
604.660,1.339
604.932,1.322
605.204,1.322
605.477,1.333
605.749,1.345
606.021,1.353
606.294,1.352
606.566,1.340
606.838,1.323
607.110,1.333
607.383,1.333
607.655,1.333
607.927,1.334
608.199,1.343
608.471,1.340
608.743,1.339
609.015,1.317
609.287,1.322
609.559,1.327
609.831,1.327
610.103,1.337
610.375,1.332
610.647,1.319
610.919,1.316
611.191,1.319
611.463,1.319
611.735,1.320
612.007,1.316
612.278,1.307
612.550,1.311
612.822,1.313
613.094,1.327
613.365,1.333
613.637,1.327
613.909,1.343
614.180,1.343
614.452,1.339
614.723,1.326
614.995,1.311
615.266,1.311
615.538,1.324
615.809,1.349
616.081,1.343
616.352,1.322
616.623,1.327
616.895,1.323
617.166,1.324
617.437,1.319
617.709,1.319
617.980,1.322
618.251,1.322
618.522,1.330
618.793,1.339
619.065,1.359
619.336,1.370
619.607,1.336
619.878,1.326
620.149,1.345
620.420,1.345
620.691,1.332
620.962,1.326
621.232,1.345
621.503,1.343
621.774,1.323
622.045,1.316
622.316,1.313
622.586,1.329
622.857,1.337
623.128,1.346
623.398,1.336
623.669,1.340
623.940,1.339
624.210,1.324
624.481,1.324
624.751,1.345
625.021,1.334
625.292,1.310
625.562,1.310
625.833,1.314
626.103,1.299
626.373,1.299
626.643,1.304
626.914,1.314
627.184,1.316
627.454,1.320
627.724,1.311
627.994,1.319
628.264,1.323
628.534,1.322
628.804,1.309
629.074,1.309
629.344,1.326
629.614,1.329
629.884,1.316
630.154,1.309
630.424,1.291
630.693,1.277
630.963,1.286
631.233,1.277
631.502,1.284
631.772,1.304
632.041,1.320
632.311,1.324
632.581,1.317
632.850,1.314
633.119,1.300
633.389,1.290
633.658,1.283
633.928,1.294
634.197,1.309
634.466,1.313
634.735,1.326
635.004,1.330
635.274,1.313
635.543,1.313
635.812,1.314
636.081,1.316
636.350,1.322
636.619,1.332
636.888,1.329
637.157,1.333
637.426,1.332
637.694,1.327
637.963,1.324
638.232,1.313
638.501,1.306
638.769,1.296
639.038,1.313
639.307,1.322
639.575,1.327
639.844,1.342
640.112,1.326
640.381,1.317
640.649,1.313
640.917,1.320
641.186,1.330
641.454,1.323
641.722,1.329
641.991,1.324
642.259,1.316
642.527,1.301
642.795,1.303
643.063,1.307
643.331,1.294
643.599,1.297
643.867,1.307
644.135,1.311
644.403,1.310
644.671,1.322
644.939,1.314
645.206,1.329
645.474,1.333
645.742,1.327
646.009,1.314
646.277,1.307
646.545,1.309
646.812,1.310
647.080,1.323
647.347,1.329
647.615,1.329
647.882,1.319
648.149,1.296
648.417,1.294
648.684,1.306
648.951,1.326
649.219,1.330
649.486,1.339
649.753,1.337
650.020,1.322
650.287,1.310
650.554,1.311
650.821,1.316
651.088,1.303
651.355,1.297
651.622,1.316
651.889,1.319
652.155,1.317
652.422,1.316
652.689,1.316
652.956,1.319
653.222,1.320
653.489,1.330
653.755,1.349
654.022,1.333
654.288,1.313
654.555,1.314
654.821,1.317
655.088,1.323
655.354,1.329
655.620,1.332
655.887,1.334
656.153,1.336
656.419,1.339
656.685,1.339
656.951,1.334
657.217,1.329
657.483,1.313
657.749,1.311
658.015,1.317
658.281,1.322
658.547,1.316
658.813,1.306
659.079,1.297
659.345,1.287
659.610,1.297
659.876,1.300
660.142,1.294
660.407,1.297
660.673,1.307
660.939,1.309
661.204,1.313
661.470,1.313
661.735,1.301
662.000,1.304
662.266,1.307
662.531,1.304
662.796,1.303
663.062,1.304
663.327,1.291
663.592,1.289
663.857,1.297
664.122,1.297
664.388,1.299
664.653,1.304
664.918,1.314
665.183,1.323
665.448,1.319
665.712,1.323
665.977,1.324
666.242,1.332
666.507,1.316
666.772,1.290
667.037,1.287
667.301,1.293
667.566,1.293
667.831,1.299
668.095,1.314
668.360,1.306
668.624,1.303
668.889,1.291
669.153,1.304
669.418,1.300
669.682,1.294
669.946,1.303
670.211,1.314
670.475,1.324
670.739,1.327
671.004,1.336
671.268,1.349
671.532,1.385
671.796,1.386
672.060,1.329
672.324,1.336
672.588,1.342
672.852,1.339
673.116,1.355
673.380,1.408
673.644,1.403
673.908,1.323
674.172,1.309
674.436,1.306
674.700,1.311
674.963,1.319
675.227,1.330
675.491,1.323
675.754,1.311
676.018,1.310
676.282,1.310
676.545,1.320
676.809,1.316
677.072,1.309
677.336,1.296
677.599,1.300
677.863,1.309
678.126,1.301
678.389,1.310
678.653,1.326
678.916,1.324
679.179,1.313
679.442,1.301
679.706,1.310
679.969,1.310
680.232,1.314
680.495,1.324
680.758,1.332
681.021,1.327
681.284,1.317
681.547,1.309
681.810,1.301
682.073,1.320
682.336,1.333
682.599,1.330
682.862,1.327
683.125,1.326
683.388,1.337
683.651,1.330
683.913,1.314
684.176,1.309
684.439,1.304
684.702,1.299
684.964,1.287
685.227,1.289
685.490,1.304
685.752,1.320
686.015,1.334
686.277,1.327
686.540,1.313
686.802,1.311
687.065,1.300
687.327,1.309
687.590,1.307
687.852,1.297
688.115,1.283
688.377,1.276
688.639,1.280
688.902,1.286
689.164,1.293
689.426,1.301
689.689,1.322
689.951,1.324
690.213,1.313
690.475,1.314
690.737,1.314
691.000,1.294
691.262,1.286
691.524,1.294
691.786,1.316
692.048,1.333
692.310,1.333
692.572,1.313
692.834,1.289
693.096,1.281
693.358,1.290
693.620,1.306
693.882,1.313
694.144,1.316
694.406,1.311
694.668,1.299
694.930,1.299
695.192,1.297
695.453,1.291
695.715,1.303
695.977,1.310
696.239,1.301
696.501,1.291
696.762,1.297
697.024,1.307
697.286,1.306
697.548,1.294
697.809,1.291
698.071,1.289
698.333,1.283
698.594,1.283
698.856,1.289
699.118,1.307
699.379,1.311
699.641,1.310
699.902,1.322
700.164,1.327
700.426,1.313
700.687,1.311
700.949,1.304
701.210,1.296
701.472,1.291
701.733,1.287
701.995,1.287
702.256,1.296
702.518,1.297
702.779,1.291
703.041,1.296
703.302,1.317
703.563,1.316
703.825,1.300
704.086,1.286
704.348,1.290
704.609,1.284
704.871,1.300
705.132,1.316
705.393,1.322
705.655,1.300
705.916,1.303
706.177,1.310
706.439,1.307
706.700,1.304
706.961,1.300
707.223,1.294
707.484,1.286
707.745,1.264
708.007,1.257
708.268,1.257
708.529,1.245
708.790,1.241
709.052,1.235
709.313,1.231
709.574,1.237
709.835,1.245
710.097,1.240
710.358,1.230
710.619,1.211
710.881,1.205
711.142,1.212
711.403,1.208
711.664,1.199
711.926,1.205
712.187,1.198
712.448,1.205
712.709,1.212
712.970,1.210
713.232,1.220
713.493,1.224
713.754,1.224
714.015,1.218
714.277,1.222
714.538,1.235
714.799,1.241
715.060,1.251
715.322,1.247
715.583,1.241
715.844,1.228
716.105,1.217
716.367,1.208
716.628,1.208
716.889,1.210
717.150,1.214
717.411,1.211
717.673,1.210
717.934,1.228
718.195,1.230
718.457,1.220
718.718,1.212
718.979,1.208
719.240,1.211
719.502,1.221
719.763,1.218
720.024,1.224
720.286,1.221
720.547,1.221
720.808,1.210
721.069,1.217
721.331,1.217
721.592,1.214
721.853,1.222
722.115,1.224
722.376,1.227
722.638,1.230
722.899,1.225
723.160,1.231
723.422,1.217
723.683,1.201
723.944,1.210
724.206,1.217
724.467,1.207
724.729,1.210
724.990,1.220
725.252,1.228
725.513,1.221
725.775,1.208
726.036,1.197
726.298,1.205
726.559,1.211
726.821,1.217
727.082,1.218
727.344,1.218
727.605,1.211
727.867,1.205
728.128,1.205
728.390,1.214
728.652,1.214
728.913,1.231
729.175,1.240
729.436,1.230
729.698,1.227
729.960,1.231
730.221,1.222
730.483,1.221
730.745,1.204
731.007,1.204
731.268,1.205
731.530,1.207
731.792,1.211
732.054,1.215
732.315,1.224
732.577,1.220
732.839,1.217
733.101,1.211
733.363,1.212
733.625,1.218
733.887,1.215
734.149,1.217
734.411,1.205
734.673,1.212
734.935,1.230
735.197,1.222
735.459,1.215
735.721,1.222
735.983,1.214
736.245,1.204
736.507,1.201
736.769,1.215
737.031,1.218
737.293,1.212
737.555,1.197
737.818,1.187
738.080,1.188
738.342,1.194
738.604,1.202
738.867,1.210
739.129,1.205
739.391,1.204
739.654,1.198
739.916,1.191
740.178,1.204
740.441,1.215
740.703,1.227
740.966,1.210
741.228,1.202
741.491,1.207
741.753,1.202
742.016,1.208
742.278,1.212
742.541,1.207
742.804,1.208
743.066,1.217
743.329,1.217
743.592,1.212
743.854,1.198
744.117,1.210
744.380,1.222
744.643,1.220
744.905,1.215
745.168,1.207
745.431,1.207
745.694,1.201
745.957,1.201
746.220,1.198
746.483,1.195
746.746,1.189
747.009,1.189
