Wavelength (nm),Intensity B9.3,,C:/Users/Brend/Desktop/LED Spectras v2/Blinds/-Interference/Spectrometer Data (Newer).sp,,,B9.3,
379.792,1.735,,2018-07-02 14:44:00,,Integration Time,100 ms,
380.000,1.721,,Analyze Light,,Number of Scans to Average,25,
380.209,1.716,,,,Smoothing,0,
380.418,1.732
380.627,1.750
380.837,1.750
381.048,1.758
381.259,1.755
381.471,1.748
381.683,1.755
381.896,1.760
382.110,1.778
382.324,1.776
382.538,1.792
382.753,1.802
382.969,1.801
383.185,1.784
383.402,1.786
383.619,1.791
383.837,1.809
384.055,1.825
384.274,1.841
384.493,1.849
384.712,1.832
384.932,1.825
385.153,1.840
385.374,1.845
385.596,1.849
385.818,1.849
386.040,1.867
386.263,1.879
386.487,1.890
386.710,1.893
386.935,1.897
387.159,1.887
387.385,1.892
387.610,1.890
387.836,1.880
388.063,1.890
388.289,1.906
388.517,1.895
388.744,1.898
388.972,1.898
389.201,1.916
389.430,1.924
389.659,1.929
389.889,1.941
390.119,1.954
390.349,1.955
390.580,1.960
390.811,1.976
391.042,1.970
391.274,1.962
391.507,1.975
391.739,1.975
391.972,1.972
392.205,1.986
392.439,1.996
392.673,1.989
392.907,1.991
393.142,2.006
393.377,2.014
393.612,2.017
393.848,2.032
394.084,2.030
394.320,2.033
394.557,2.037
394.794,2.058
395.031,2.056
395.269,2.074
395.507,2.087
395.745,2.090
395.983,2.081
396.222,2.092
396.461,2.100
396.700,2.128
396.940,2.141
397.180,2.144
397.420,2.139
397.660,2.134
397.901,2.126
398.142,2.126
398.383,2.139
398.625,2.126
398.866,2.133
399.108,2.154
399.351,2.191
399.593,2.214
399.836,2.180
400.079,2.175
400.322,2.173
400.566,2.177
400.809,2.173
401.053,2.180
401.298,2.190
401.542,2.193
401.787,2.199
402.031,2.211
402.277,2.212
402.522,2.240
402.767,2.242
403.013,2.245
403.259,2.243
403.505,2.255
403.752,2.250
403.998,2.252
404.245,2.253
404.492,2.279
404.739,2.274
404.986,2.269
405.234,2.282
405.482,2.295
405.730,2.289
405.978,2.295
406.226,2.305
406.475,2.291
406.723,2.281
406.972,2.297
407.221,2.310
407.470,2.312
407.720,2.313
407.969,2.333
408.219,2.317
408.469,2.346
408.719,2.365
408.969,2.351
409.219,2.357
409.470,2.380
409.720,2.362
409.971,2.370
410.222,2.385
410.473,2.405
410.724,2.392
410.976,2.392
411.227,2.401
411.479,2.422
411.731,2.422
411.983,2.432
412.235,2.426
412.487,2.426
412.740,2.422
412.992,2.437
413.245,2.431
413.497,2.432
413.750,2.427
414.003,2.435
414.257,2.426
414.510,2.445
414.763,2.462
415.017,2.475
415.270,2.473
415.524,2.475
415.778,2.471
416.032,2.479
416.286,2.478
416.540,2.489
416.794,2.492
417.049,2.512
417.303,2.519
417.558,2.517
417.812,2.525
418.067,2.532
418.322,2.536
418.577,2.540
418.832,2.517
419.088,2.512
419.343,2.507
419.598,2.523
419.854,2.507
420.109,2.527
420.365,2.540
420.621,2.551
420.876,2.543
421.132,2.553
421.388,2.538
421.645,2.533
421.901,2.536
422.157,2.549
422.413,2.551
422.670,2.567
422.926,2.566
423.183,2.572
423.439,2.569
423.696,2.590
423.953,2.615
424.210,2.649
424.467,2.652
424.724,2.637
424.981,2.639
425.238,2.646
425.495,2.659
425.753,2.694
426.010,2.707
426.267,2.707
426.525,2.730
426.782,2.779
427.040,2.797
427.298,2.841
427.555,2.885
427.813,2.919
428.071,2.939
428.329,2.991
428.587,3.018
428.845,3.059
429.103,3.105
429.361,3.163
429.619,3.214
429.878,3.285
430.136,3.328
430.394,3.403
430.653,3.482
430.911,3.580
431.170,3.660
431.428,3.746
431.687,3.823
431.946,3.919
432.204,3.990
432.463,4.085
432.722,4.190
432.981,4.322
433.240,4.448
433.499,4.606
433.758,4.757
434.017,4.910
434.276,5.022
434.535,5.184
434.794,5.345
435.053,5.519
435.312,5.690
435.572,5.874
435.831,6.053
436.090,6.292
436.350,6.510
436.609,6.753
436.869,6.969
437.128,7.212
437.388,7.445
437.647,7.697
437.907,7.969
438.166,8.282
438.426,8.539
438.686,8.829
438.946,9.146
439.205,9.475
439.465,9.794
439.725,10.149
439.985,10.502
440.245,10.852
440.505,11.209
440.765,11.604
441.025,11.979
441.285,12.363
441.545,12.791
441.805,13.239
442.065,13.661
442.325,14.162
442.585,14.610
442.846,15.116
443.106,15.666
443.366,16.239
443.626,16.780
443.887,17.387
444.147,17.975
444.407,18.600
444.668,19.266
444.928,19.958
445.189,20.690
445.449,21.431
445.710,22.222
445.970,23.057
446.231,23.941
446.491,24.847
446.752,25.814
447.012,26.829
447.273,27.837
447.534,28.941
447.794,30.045
448.055,31.202
448.316,32.417
448.577,33.745
448.837,35.101
449.098,36.545
449.359,37.986
449.620,39.466
449.881,40.946
450.142,42.499
450.403,44.075
450.664,45.765
450.924,47.482
451.185,49.175
451.446,50.903
451.707,52.674
451.969,54.437
452.230,56.265
452.491,58.040
452.752,59.731
453.013,61.415
453.274,63.079
453.535,64.698
453.796,66.260
454.058,67.723
454.319,69.120
454.580,70.406
454.841,71.531
455.103,72.594
455.364,73.525
455.625,74.323
455.887,75.048
456.148,75.598
456.409,76.046
456.671,76.340
456.932,76.422
457.194,76.290
457.455,76.044
457.716,75.720
457.978,75.220
458.239,74.603
458.501,73.854
458.763,73.037
459.024,72.112
459.286,71.044
459.547,69.932
459.809,68.687
460.071,67.285
460.332,65.858
460.594,64.387
460.856,62.927
461.117,61.480
461.379,59.990
461.641,58.507
461.903,57.031
462.164,55.526
462.426,54.068
462.688,52.664
462.950,51.279
463.212,50.009
463.474,48.713
463.736,47.469
463.998,46.291
464.260,45.193
464.522,44.161
464.784,43.202
465.046,42.325
465.308,41.464
465.570,40.674
465.832,39.907
466.094,39.194
466.356,38.499
466.618,37.853
466.880,37.214
467.142,36.596
467.405,36.034
467.667,35.446
467.929,34.929
468.191,34.406
468.454,33.871
468.716,33.350
468.978,32.816
469.241,32.254
469.503,31.735
469.765,31.254
470.028,30.751
470.290,30.265
470.552,29.784
470.815,29.252
471.077,28.768
471.340,28.265
471.602,27.764
471.865,27.279
472.128,26.799
472.390,26.242
472.653,25.726
472.915,25.221
473.178,24.681
473.441,24.132
473.703,23.562
473.966,22.945
474.229,22.396
474.492,21.833
474.755,21.283
475.017,20.737
475.280,20.230
475.543,19.712
475.806,19.197
476.069,18.644
476.332,18.107
476.595,17.613
476.858,17.158
477.121,16.661
477.384,16.204
477.647,15.762
477.910,15.337
478.173,14.916
478.436,14.514
478.699,14.107
478.962,13.724
479.226,13.364
479.489,13.053
479.752,12.746
480.015,12.405
480.279,12.080
480.542,11.782
480.805,11.456
481.069,11.173
481.332,10.878
481.595,10.613
481.859,10.364
482.122,10.177
482.386,9.942
482.649,9.706
482.913,9.485
483.177,9.250
483.440,9.014
483.704,8.821
483.967,8.632
484.231,8.475
484.495,8.291
484.759,8.120
485.022,7.922
485.286,7.712
485.550,7.525
485.814,7.344
486.078,7.145
486.342,7.002
486.606,6.849
486.869,6.720
487.133,6.558
487.397,6.414
487.662,6.260
487.926,6.094
488.190,5.936
488.454,5.815
488.718,5.662
488.982,5.535
489.246,5.369
489.511,5.242
489.775,5.097
490.039,4.967
490.304,4.843
490.568,4.729
490.832,4.557
491.097,4.453
491.361,4.337
491.626,4.233
491.890,4.111
492.155,4.021
492.419,3.907
492.684,3.836
492.949,3.710
493.213,3.621
493.478,3.551
493.743,3.487
494.008,3.380
494.272,3.290
494.537,3.189
494.802,3.127
495.067,3.048
495.332,2.987
495.597,2.922
495.862,2.870
496.127,2.808
496.392,2.758
496.657,2.699
496.922,2.629
497.187,2.577
497.452,2.551
497.718,2.519
497.983,2.494
498.248,2.444
498.513,2.380
498.779,2.349
499.044,2.348
499.310,2.300
499.575,2.250
499.841,2.214
500.106,2.211
500.372,2.182
500.637,2.157
500.903,2.128
501.168,2.121
501.434,2.090
501.700,2.053
501.966,2.020
502.231,2.004
502.497,1.985
502.763,1.972
503.029,1.950
503.295,1.924
503.561,1.915
503.827,1.902
504.093,1.888
504.359,1.871
504.625,1.849
504.891,1.851
505.157,1.832
505.423,1.823
505.690,1.784
505.956,1.763
506.222,1.757
506.489,1.761
506.755,1.770
507.021,1.786
507.288,1.779
507.554,1.773
507.821,1.761
508.087,1.752
508.354,1.732
508.621,1.727
508.887,1.705
509.154,1.690
509.421,1.680
509.687,1.672
509.954,1.648
510.221,1.649
510.488,1.648
510.755,1.649
511.022,1.648
511.289,1.652
511.556,1.631
511.823,1.631
512.090,1.620
512.357,1.625
512.624,1.612
512.891,1.604
513.159,1.592
513.426,1.578
513.693,1.579
513.960,1.574
514.228,1.568
514.495,1.576
514.763,1.574
515.030,1.563
515.298,1.550
515.565,1.534
515.833,1.538
516.100,1.532
516.368,1.525
516.636,1.535
516.904,1.527
517.171,1.516
517.439,1.512
517.707,1.501
517.975,1.501
518.243,1.512
518.511,1.519
518.779,1.491
519.047,1.455
519.315,1.470
519.583,1.467
519.851,1.459
520.119,1.455
520.387,1.449
520.656,1.444
520.924,1.455
521.192,1.455
521.461,1.454
521.729,1.459
521.997,1.457
522.266,1.457
522.534,1.460
522.803,1.462
523.071,1.454
523.340,1.446
523.609,1.433
523.877,1.433
524.146,1.441
524.415,1.438
524.684,1.436
524.952,1.442
525.221,1.426
525.490,1.421
525.759,1.446
526.028,1.438
526.297,1.428
526.566,1.423
526.835,1.425
527.104,1.426
527.373,1.438
527.642,1.439
527.912,1.431
528.181,1.425
528.450,1.423
528.719,1.428
528.989,1.436
529.258,1.447
529.528,1.446
529.797,1.429
530.067,1.425
530.336,1.429
530.606,1.411
530.875,1.408
531.145,1.400
531.414,1.402
531.684,1.410
531.954,1.415
532.224,1.408
532.493,1.398
532.763,1.389
533.033,1.394
533.303,1.402
533.573,1.411
533.843,1.408
534.113,1.389
534.383,1.390
534.653,1.382
534.923,1.381
535.193,1.392
535.463,1.398
535.733,1.405
536.004,1.405
536.274,1.408
536.544,1.410
536.814,1.395
537.085,1.385
537.355,1.389
537.626,1.402
537.896,1.407
538.166,1.405
538.437,1.402
538.707,1.381
538.978,1.369
539.249,1.376
539.519,1.390
539.790,1.382
540.061,1.366
540.331,1.377
540.602,1.390
540.873,1.402
541.144,1.400
541.414,1.394
541.685,1.382
541.956,1.382
542.227,1.384
542.498,1.385
542.769,1.384
543.040,1.384
543.311,1.390
543.582,1.394
543.853,1.390
544.124,1.384
544.396,1.392
544.667,1.397
544.938,1.397
545.209,1.384
545.480,1.348
545.752,1.354
546.023,1.368
546.294,1.372
546.566,1.369
546.837,1.372
547.109,1.368
547.380,1.374
547.652,1.369
547.923,1.368
548.195,1.381
548.466,1.385
548.738,1.390
549.009,1.390
549.281,1.382
549.553,1.371
549.824,1.363
550.096,1.358
550.368,1.356
550.640,1.356
550.911,1.348
551.183,1.356
551.455,1.389
551.727,1.403
551.999,1.394
552.271,1.376
552.543,1.369
552.815,1.364
553.087,1.363
553.359,1.377
553.631,1.381
553.903,1.381
554.175,1.384
554.447,1.392
554.719,1.402
554.991,1.392
555.263,1.389
555.535,1.382
555.808,1.377
556.080,1.377
556.352,1.363
556.624,1.363
556.897,1.364
557.169,1.359
557.441,1.363
557.714,1.354
557.986,1.338
558.258,1.343
558.531,1.340
558.803,1.338
559.076,1.353
559.348,1.359
559.621,1.350
559.893,1.346
560.166,1.356
560.438,1.358
560.711,1.354
560.983,1.351
561.256,1.346
561.528,1.364
561.801,1.376
562.074,1.369
562.346,1.382
562.619,1.394
562.892,1.389
563.164,1.384
563.437,1.385
563.710,1.381
563.983,1.368
564.255,1.358
564.528,1.356
564.801,1.379
565.074,1.379
565.346,1.372
565.619,1.364
565.892,1.374
566.165,1.387
566.438,1.372
566.711,1.356
566.984,1.351
567.257,1.345
567.529,1.343
567.802,1.356
568.075,1.377
568.348,1.377
568.621,1.366
568.894,1.364
569.167,1.356
569.440,1.348
569.713,1.345
569.986,1.332
570.259,1.332
570.532,1.333
570.805,1.350
571.078,1.363
571.351,1.350
571.625,1.364
571.898,1.366
572.171,1.345
572.444,1.343
572.717,1.348
572.990,1.356
573.263,1.363
573.536,1.340
573.809,1.328
574.083,1.320
574.356,1.327
574.629,1.351
574.902,1.366
575.175,1.358
575.448,1.350
575.721,1.345
575.995,1.345
576.268,1.345
576.541,1.338
576.814,1.348
577.087,1.351
577.361,1.359
577.634,1.363
577.907,1.358
578.180,1.338
578.453,1.324
578.727,1.333
579.000,1.338
579.273,1.341
579.546,1.354
579.820,1.363
580.093,1.359
580.366,1.348
580.639,1.343
580.913,1.328
581.186,1.325
581.459,1.330
581.732,1.330
582.005,1.332
582.279,1.338
582.552,1.332
582.825,1.335
583.098,1.332
583.372,1.330
583.645,1.328
583.918,1.333
584.191,1.341
584.464,1.348
584.738,1.341
585.011,1.340
585.284,1.337
585.557,1.335
585.831,1.337
586.104,1.346
586.377,1.354
586.650,1.371
586.923,1.368
587.196,1.361
587.470,1.353
587.743,1.350
588.016,1.350
588.289,1.348
588.562,1.356
588.835,1.371
589.109,1.351
589.382,1.340
589.655,1.343
589.928,1.335
590.201,1.327
590.474,1.330
590.747,1.343
591.020,1.343
591.293,1.345
591.567,1.351
591.840,1.345
592.113,1.328
592.386,1.324
592.659,1.319
592.932,1.317
593.205,1.330
593.478,1.338
593.751,1.333
594.024,1.332
594.297,1.341
594.570,1.337
594.843,1.343
595.116,1.353
595.389,1.350
595.662,1.345
595.934,1.343
596.207,1.345
596.480,1.359
596.753,1.364
597.026,1.364
597.299,1.361
597.572,1.361
597.844,1.358
598.117,1.345
598.390,1.341
598.663,1.338
598.936,1.338
599.208,1.346
599.481,1.341
599.754,1.343
600.026,1.340
600.299,1.314
600.572,1.312
600.844,1.322
601.117,1.307
601.390,1.301
601.662,1.307
601.935,1.314
602.207,1.315
602.480,1.320
602.752,1.324
603.025,1.317
603.297,1.314
603.570,1.320
603.842,1.324
604.115,1.333
604.387,1.325
604.660,1.327
604.932,1.322
605.204,1.322
605.477,1.328
605.749,1.345
606.021,1.350
606.294,1.353
606.566,1.345
606.838,1.322
607.110,1.332
607.383,1.340
607.655,1.338
607.927,1.348
608.199,1.358
608.471,1.358
608.743,1.354
609.015,1.345
609.287,1.330
609.559,1.333
609.831,1.332
610.103,1.337
610.375,1.332
610.647,1.325
610.919,1.315
611.191,1.309
611.463,1.319
611.735,1.328
612.007,1.319
612.278,1.312
612.550,1.317
612.822,1.327
613.094,1.337
613.365,1.335
613.637,1.322
613.909,1.324
614.180,1.327
614.452,1.340
614.723,1.338
614.995,1.328
615.266,1.324
615.538,1.338
615.809,1.356
616.081,1.354
616.352,1.343
616.623,1.335
616.895,1.337
617.166,1.338
617.437,1.328
617.709,1.325
617.980,1.330
618.251,1.335
618.522,1.338
618.793,1.345
619.065,1.359
619.336,1.371
619.607,1.335
619.878,1.324
620.149,1.341
620.420,1.343
620.691,1.332
620.962,1.341
621.232,1.358
621.503,1.358
621.774,1.341
622.045,1.340
622.316,1.343
622.586,1.354
622.857,1.363
623.128,1.359
623.398,1.345
623.669,1.337
623.940,1.330
624.210,1.319
624.481,1.317
624.751,1.335
625.021,1.330
625.292,1.322
625.562,1.324
625.833,1.333
626.103,1.330
626.373,1.322
626.643,1.320
626.914,1.322
627.184,1.330
627.454,1.330
627.724,1.325
627.994,1.327
628.264,1.332
628.534,1.324
628.804,1.307
629.074,1.319
629.344,1.333
629.614,1.338
629.884,1.335
630.154,1.340
630.424,1.322
630.693,1.312
630.963,1.309
631.233,1.301
631.502,1.288
631.772,1.302
632.041,1.315
632.311,1.322
632.581,1.320
632.850,1.320
633.119,1.315
633.389,1.302
633.658,1.298
633.928,1.306
634.197,1.325
634.466,1.327
634.735,1.332
635.004,1.340
635.274,1.322
635.543,1.315
635.812,1.312
636.081,1.311
636.350,1.322
636.619,1.325
636.888,1.330
637.157,1.332
637.426,1.335
637.694,1.338
637.963,1.328
638.232,1.330
638.501,1.328
638.769,1.322
639.038,1.327
639.307,1.325
639.575,1.328
639.844,1.337
640.112,1.315
640.381,1.307
640.649,1.307
640.917,1.312
641.186,1.320
641.454,1.317
641.722,1.322
641.991,1.325
642.259,1.328
642.527,1.307
642.795,1.306
643.063,1.309
643.331,1.294
643.599,1.306
643.867,1.309
644.135,1.319
644.403,1.328
644.671,1.343
644.939,1.333
645.206,1.343
645.474,1.348
645.742,1.343
646.009,1.324
646.277,1.322
646.545,1.322
646.812,1.319
647.080,1.335
647.347,1.343
647.615,1.335
647.882,1.324
648.149,1.314
648.417,1.312
648.684,1.315
648.951,1.322
649.219,1.324
649.486,1.324
649.753,1.314
650.020,1.314
650.287,1.311
650.554,1.304
650.821,1.302
651.088,1.299
651.355,1.302
651.622,1.322
651.889,1.314
652.155,1.319
652.422,1.312
652.689,1.317
652.956,1.328
653.222,1.320
653.489,1.337
653.755,1.358
654.022,1.343
654.288,1.322
654.555,1.317
654.821,1.317
655.088,1.317
655.354,1.324
655.620,1.330
655.887,1.343
656.153,1.337
656.419,1.343
656.685,1.338
656.951,1.328
657.217,1.330
657.483,1.324
657.749,1.319
658.015,1.322
658.281,1.330
658.547,1.337
658.813,1.324
659.079,1.307
659.345,1.302
659.610,1.294
659.876,1.299
660.142,1.309
660.407,1.307
660.673,1.309
660.939,1.315
661.204,1.317
661.470,1.304
661.735,1.296
662.000,1.302
662.266,1.307
662.531,1.298
662.796,1.302
663.062,1.309
663.327,1.302
663.592,1.294
663.857,1.307
664.122,1.302
664.388,1.298
664.653,1.311
664.918,1.317
665.183,1.314
665.448,1.307
665.712,1.315
665.977,1.324
666.242,1.327
666.507,1.324
666.772,1.293
667.037,1.293
667.301,1.294
667.566,1.296
667.831,1.302
668.095,1.314
668.360,1.315
668.624,1.312
668.889,1.296
669.153,1.306
669.418,1.296
669.682,1.293
669.946,1.301
670.211,1.312
670.475,1.322
670.739,1.319
671.004,1.327
671.268,1.341
671.532,1.381
671.796,1.387
672.060,1.337
672.324,1.340
672.588,1.356
672.852,1.358
673.116,1.368
673.380,1.413
673.644,1.400
673.908,1.322
674.172,1.322
674.436,1.324
674.700,1.328
674.963,1.325
675.227,1.324
675.491,1.328
675.754,1.319
676.018,1.314
676.282,1.314
676.545,1.324
676.809,1.317
677.072,1.309
677.336,1.306
677.599,1.306
677.863,1.309
678.126,1.304
678.389,1.311
678.653,1.327
678.916,1.324
679.179,1.319
679.442,1.307
679.706,1.307
679.969,1.315
680.232,1.314
680.495,1.324
680.758,1.340
681.021,1.335
681.284,1.328
681.547,1.319
681.810,1.311
682.073,1.337
682.336,1.351
682.599,1.333
682.862,1.317
683.125,1.311
683.388,1.307
683.651,1.307
683.913,1.301
684.176,1.298
684.439,1.294
684.702,1.289
684.964,1.286
685.227,1.286
685.490,1.306
685.752,1.314
686.015,1.327
686.277,1.324
686.540,1.314
686.802,1.307
687.065,1.302
687.327,1.309
687.590,1.309
687.852,1.299
688.115,1.293
688.377,1.288
688.639,1.302
688.902,1.304
689.164,1.293
689.426,1.307
689.689,1.325
689.951,1.327
690.213,1.312
690.475,1.315
690.737,1.309
691.000,1.309
691.262,1.306
691.524,1.315
691.786,1.315
692.048,1.324
692.310,1.332
692.572,1.312
692.834,1.298
693.096,1.301
693.358,1.306
693.620,1.319
693.882,1.332
694.144,1.338
694.406,1.330
694.668,1.324
694.930,1.328
695.192,1.314
695.453,1.314
695.715,1.322
695.977,1.330
696.239,1.324
696.501,1.314
696.762,1.311
697.024,1.319
697.286,1.312
697.548,1.307
697.809,1.302
698.071,1.302
698.333,1.302
698.594,1.304
698.856,1.299
699.118,1.296
699.379,1.301
699.641,1.307
699.902,1.322
700.164,1.315
700.426,1.307
700.687,1.302
700.949,1.294
701.210,1.306
701.472,1.306
701.733,1.296
701.995,1.296
702.256,1.304
702.518,1.301
702.779,1.296
703.041,1.294
703.302,1.319
703.563,1.324
703.825,1.304
704.086,1.291
704.348,1.291
704.609,1.299
704.871,1.314
705.132,1.327
705.393,1.322
705.655,1.304
705.916,1.311
706.177,1.314
706.439,1.312
706.700,1.317
706.961,1.307
707.223,1.286
707.484,1.289
707.745,1.263
708.007,1.252
708.268,1.249
708.529,1.239
708.790,1.236
709.052,1.228
709.313,1.221
709.574,1.224
709.835,1.224
710.097,1.231
710.358,1.229
710.619,1.214
710.881,1.206
711.142,1.208
711.403,1.211
711.664,1.208
711.926,1.206
712.187,1.200
712.448,1.205
712.709,1.208
712.970,1.210
713.232,1.214
713.493,1.219
713.754,1.221
714.015,1.224
714.277,1.237
714.538,1.242
714.799,1.249
715.060,1.258
715.322,1.245
715.583,1.234
715.844,1.237
716.105,1.224
716.367,1.219
716.628,1.219
716.889,1.229
717.150,1.226
717.411,1.213
717.673,1.205
717.934,1.221
718.195,1.226
718.457,1.226
718.718,1.216
718.979,1.208
719.240,1.211
719.502,1.219
719.763,1.216
720.024,1.219
720.286,1.224
720.547,1.218
720.808,1.205
721.069,1.208
721.331,1.201
721.592,1.216
721.853,1.228
722.115,1.226
722.376,1.232
722.638,1.232
722.899,1.226
723.160,1.228
723.422,1.224
723.683,1.218
723.944,1.218
724.206,1.229
724.467,1.223
724.729,1.226
724.990,1.242
725.252,1.249
725.513,1.237
725.775,1.211
726.036,1.203
726.298,1.205
726.559,1.213
726.821,1.216
727.082,1.216
727.344,1.211
727.605,1.213
727.867,1.213
728.128,1.205
728.390,1.211
728.652,1.213
728.913,1.218
729.175,1.231
729.436,1.226
729.698,1.224
729.960,1.229
730.221,1.214
730.483,1.210
730.745,1.214
731.007,1.214
731.268,1.210
731.530,1.213
731.792,1.211
732.054,1.216
732.315,1.229
732.577,1.228
732.839,1.219
733.101,1.201
733.363,1.200
733.625,1.208
733.887,1.213
734.149,1.213
734.411,1.210
734.673,1.221
734.935,1.234
735.197,1.231
735.459,1.223
735.721,1.228
735.983,1.226
736.245,1.213
736.507,1.206
736.769,1.218
737.031,1.226
737.293,1.224
737.555,1.210
737.818,1.213
738.080,1.223
738.342,1.208
738.604,1.205
738.867,1.211
739.129,1.210
739.391,1.203
739.654,1.201
739.916,1.205
740.178,1.210
740.441,1.219
740.703,1.221
740.966,1.203
741.228,1.195
741.491,1.198
741.753,1.195
742.016,1.205
742.278,1.210
742.541,1.200
742.804,1.206
743.066,1.211
743.329,1.223
743.592,1.213
743.854,1.213
744.117,1.219
744.380,1.224
744.643,1.223
744.905,1.219
745.168,1.221
745.431,1.223
745.694,1.214
745.957,1.206
746.220,1.211
746.483,1.206
746.746,1.210
747.009,1.210
