Wavelength (nm),Intensity BB1.3,,C:/Users/Brend/Desktop/LED Spectras v2/Blinds/-Interference/Spectrometer Data (Newer).sp,,,BB1.3,
379.792,1.701,,2018-07-02 14:39:35,,Integration Time,100 ms,
380.000,1.688,,Analyze Light,,Number of Scans to Average,25,
380.209,1.681,,,,Smoothing,0,
380.418,1.690
380.627,1.705
380.837,1.715
381.048,1.722
381.259,1.717
381.471,1.710
381.683,1.725
381.896,1.743
382.110,1.744
382.324,1.746
382.538,1.757
382.753,1.768
382.969,1.760
383.185,1.734
383.402,1.744
383.619,1.757
383.837,1.774
384.055,1.775
384.274,1.789
384.493,1.793
384.712,1.789
384.932,1.797
385.153,1.807
385.374,1.803
385.596,1.808
385.818,1.818
386.040,1.839
386.263,1.853
386.487,1.855
386.710,1.842
386.935,1.832
387.159,1.820
387.385,1.827
387.610,1.825
387.836,1.825
388.063,1.840
388.289,1.846
388.517,1.851
388.744,1.849
388.972,1.850
389.201,1.874
389.430,1.873
389.659,1.871
389.889,1.876
390.119,1.886
390.349,1.887
390.580,1.893
390.811,1.897
391.042,1.898
391.274,1.896
391.507,1.912
391.739,1.908
391.972,1.898
392.205,1.899
392.439,1.916
392.673,1.926
392.907,1.933
393.142,1.940
393.377,1.954
393.612,1.957
393.848,1.966
394.084,1.955
394.320,1.964
394.557,1.972
394.794,1.989
395.031,1.988
395.269,1.988
395.507,1.989
395.745,2.002
395.983,1.995
396.222,2.005
396.461,2.016
396.700,2.040
396.940,2.061
397.180,2.054
397.420,2.046
397.660,2.045
397.901,2.056
398.142,2.048
398.383,2.052
398.625,2.048
398.866,2.050
399.108,2.079
399.351,2.092
399.593,2.110
399.836,2.098
400.079,2.097
400.322,2.094
400.566,2.097
400.809,2.101
401.053,2.105
401.298,2.103
401.542,2.105
401.787,2.127
402.031,2.138
402.277,2.128
402.522,2.142
402.767,2.151
403.013,2.158
403.259,2.144
403.505,2.151
403.752,2.155
403.998,2.155
404.245,2.164
404.492,2.186
404.739,2.195
404.986,2.199
405.234,2.208
405.482,2.206
405.730,2.203
405.978,2.196
406.226,2.202
406.475,2.194
406.723,2.190
406.972,2.200
407.221,2.210
407.470,2.214
407.720,2.220
407.969,2.230
408.219,2.220
408.469,2.245
408.719,2.253
408.969,2.247
409.219,2.259
409.470,2.274
409.720,2.261
409.971,2.273
410.222,2.286
410.473,2.298
410.724,2.290
410.976,2.292
411.227,2.306
411.479,2.326
411.731,2.327
411.983,2.334
412.235,2.327
412.487,2.338
412.740,2.346
412.992,2.353
413.245,2.340
413.497,2.344
413.750,2.346
414.003,2.350
414.257,2.338
414.510,2.338
414.763,2.341
415.017,2.367
415.270,2.367
415.524,2.371
415.778,2.366
416.032,2.380
416.286,2.381
416.540,2.406
416.794,2.400
417.049,2.409
417.303,2.404
417.558,2.407
417.812,2.416
418.067,2.412
418.322,2.412
418.577,2.424
418.832,2.412
419.088,2.418
419.343,2.412
419.598,2.418
419.854,2.405
420.109,2.421
420.365,2.429
420.621,2.449
420.876,2.450
421.132,2.462
421.388,2.456
421.645,2.445
421.901,2.447
422.157,2.463
422.413,2.464
422.670,2.474
422.926,2.470
423.183,2.474
423.439,2.463
423.696,2.488
423.953,2.498
424.210,2.539
424.467,2.547
424.724,2.529
424.981,2.515
425.238,2.514
425.495,2.528
425.753,2.567
426.010,2.574
426.267,2.587
426.525,2.602
426.782,2.632
427.040,2.650
427.298,2.676
427.555,2.706
427.813,2.730
428.071,2.748
428.329,2.787
428.587,2.808
428.845,2.837
429.103,2.874
429.361,2.912
429.619,2.936
429.878,2.989
430.136,3.028
430.394,3.097
430.653,3.140
430.911,3.235
431.170,3.321
431.428,3.393
431.687,3.436
431.946,3.513
432.204,3.584
432.463,3.673
432.722,3.765
432.981,3.854
433.240,3.936
433.499,4.052
433.758,4.155
434.017,4.274
434.276,4.383
434.535,4.512
434.794,4.653
435.053,4.818
435.312,4.963
435.572,5.126
435.831,5.267
436.090,5.448
436.350,5.624
436.609,5.832
436.869,6.010
437.128,6.222
437.388,6.431
437.647,6.656
437.907,6.889
438.166,7.141
438.426,7.351
438.686,7.601
438.946,7.866
439.205,8.152
439.465,8.434
439.725,8.747
439.985,9.041
440.245,9.380
440.505,9.702
440.765,10.047
441.025,10.375
441.285,10.726
441.545,11.096
441.805,11.468
442.065,11.832
442.325,12.232
442.585,12.654
442.846,13.110
443.106,13.547
443.366,14.029
443.626,14.512
443.887,15.007
444.147,15.522
444.407,16.065
444.668,16.586
444.928,17.179
445.189,17.774
445.449,18.402
445.710,19.058
445.970,19.700
446.231,20.413
446.491,21.173
446.752,21.963
447.012,22.763
447.273,23.594
447.534,24.428
447.794,25.323
448.055,26.233
448.316,27.210
448.577,28.295
448.837,29.377
449.098,30.548
449.359,31.749
449.620,32.964
449.881,34.159
450.142,35.438
450.403,36.753
450.664,38.165
450.924,39.642
451.185,41.108
451.446,42.633
451.707,44.211
451.969,45.850
452.230,47.532
452.491,49.196
452.752,50.852
453.013,52.531
453.274,54.212
453.535,55.845
453.796,57.458
454.058,59.070
454.319,60.632
454.580,62.161
454.841,63.600
455.103,64.986
455.364,66.270
455.625,67.482
455.887,68.641
456.148,69.683
456.409,70.660
456.671,71.510
456.932,72.232
457.194,72.770
457.455,73.207
457.716,73.572
457.978,73.759
458.239,73.816
458.501,73.764
458.763,73.588
459.024,73.245
459.286,72.802
459.547,72.240
459.809,71.528
460.071,70.680
460.332,69.729
460.594,68.746
460.856,67.660
461.117,66.527
461.379,65.322
461.641,64.139
461.903,62.890
462.164,61.533
462.426,60.158
462.688,58.795
462.950,57.425
463.212,56.054
463.474,54.682
463.736,53.351
463.998,52.035
464.260,50.812
464.522,49.619
464.784,48.514
465.046,47.414
465.308,46.372
465.570,45.396
465.832,44.439
466.094,43.542
466.356,42.703
466.618,41.861
466.880,41.060
467.142,40.266
467.405,39.553
467.667,38.878
467.929,38.243
468.191,37.626
468.454,37.023
468.716,36.474
468.978,35.872
469.241,35.274
469.503,34.692
469.765,34.139
470.028,33.616
470.290,33.065
470.552,32.528
470.815,32.024
471.077,31.502
471.340,30.964
471.602,30.493
471.865,30.001
472.128,29.506
472.390,29.008
472.653,28.547
472.915,28.029
473.178,27.510
473.441,26.975
473.703,26.409
473.966,25.853
474.229,25.319
474.492,24.764
474.755,24.200
475.017,23.640
475.280,23.089
475.543,22.555
475.806,22.039
476.069,21.472
476.332,20.927
476.595,20.374
476.858,19.850
477.121,19.318
477.384,18.807
477.647,18.313
477.910,17.876
478.173,17.397
478.436,16.913
478.699,16.442
478.962,16.034
479.226,15.581
479.489,15.202
479.752,14.814
480.015,14.426
480.279,14.026
480.542,13.639
480.805,13.270
481.069,12.947
481.332,12.606
481.595,12.284
481.859,11.985
482.122,11.726
482.386,11.425
482.649,11.144
482.913,10.862
483.177,10.579
483.440,10.308
483.704,10.079
483.967,9.859
484.231,9.663
484.495,9.459
484.759,9.231
485.022,9.016
485.286,8.817
485.550,8.609
485.814,8.421
486.078,8.208
486.342,8.034
486.606,7.834
486.869,7.657
487.133,7.503
487.397,7.358
487.662,7.190
487.926,7.035
488.190,6.857
488.454,6.723
488.718,6.553
488.982,6.408
489.246,6.219
489.511,6.083
489.775,5.907
490.039,5.758
490.304,5.597
490.568,5.456
490.832,5.304
491.097,5.196
491.361,5.075
491.626,4.962
491.890,4.835
492.155,4.706
492.419,4.555
492.684,4.464
492.949,4.331
493.213,4.224
493.478,4.131
493.743,4.038
494.008,3.902
494.272,3.790
494.537,3.695
494.802,3.615
495.067,3.530
495.332,3.461
495.597,3.374
495.862,3.307
496.127,3.222
496.392,3.153
496.657,3.053
496.922,2.974
497.187,2.902
497.452,2.849
497.718,2.798
497.983,2.778
498.248,2.712
498.513,2.647
498.779,2.606
499.044,2.586
499.310,2.550
499.575,2.492
499.841,2.444
500.106,2.409
500.372,2.357
500.637,2.321
500.903,2.300
501.168,2.288
501.434,2.253
501.700,2.214
501.966,2.181
502.231,2.159
502.497,2.126
502.763,2.102
503.029,2.067
503.295,2.037
503.561,2.037
503.827,2.018
504.093,1.995
504.359,1.980
504.625,1.958
504.891,1.943
505.157,1.913
505.423,1.905
505.690,1.869
505.956,1.844
506.222,1.843
506.489,1.842
506.755,1.848
507.021,1.850
507.288,1.832
507.554,1.821
507.821,1.800
508.087,1.783
508.354,1.780
508.621,1.776
508.887,1.747
509.154,1.732
509.421,1.732
509.687,1.718
509.954,1.699
510.221,1.693
510.488,1.674
510.755,1.684
511.022,1.691
511.289,1.689
511.556,1.667
511.823,1.663
512.090,1.661
512.357,1.663
512.624,1.638
512.891,1.628
513.159,1.614
513.426,1.605
513.693,1.602
513.960,1.605
514.228,1.611
514.495,1.609
514.763,1.600
515.030,1.587
515.298,1.570
515.565,1.564
515.833,1.566
516.100,1.559
516.368,1.539
516.636,1.542
516.904,1.529
517.171,1.541
517.439,1.528
517.707,1.525
517.975,1.517
518.243,1.526
518.511,1.524
518.779,1.509
519.047,1.495
519.315,1.513
519.583,1.503
519.851,1.484
520.119,1.480
520.387,1.477
520.656,1.467
520.924,1.471
521.192,1.469
521.461,1.467
521.729,1.476
521.997,1.493
522.266,1.491
522.534,1.475
522.803,1.470
523.071,1.476
523.340,1.468
523.609,1.446
523.877,1.436
524.146,1.437
524.415,1.440
524.684,1.446
524.952,1.444
525.221,1.437
525.490,1.437
525.759,1.443
526.028,1.442
526.297,1.435
526.566,1.418
526.835,1.416
527.104,1.420
527.373,1.431
527.642,1.435
527.912,1.423
528.181,1.415
528.450,1.411
528.719,1.411
528.989,1.424
529.258,1.441
529.528,1.443
529.797,1.426
530.067,1.423
530.336,1.431
530.606,1.416
530.875,1.408
531.145,1.398
531.414,1.404
531.684,1.411
531.954,1.410
532.224,1.397
532.493,1.392
532.763,1.376
533.033,1.376
533.303,1.392
533.573,1.394
533.843,1.398
534.113,1.383
534.383,1.390
534.653,1.384
534.923,1.388
535.193,1.388
535.463,1.387
535.733,1.403
536.004,1.406
536.274,1.403
536.544,1.402
536.814,1.384
537.085,1.374
537.355,1.376
537.626,1.392
537.896,1.395
538.166,1.389
538.437,1.392
538.707,1.389
538.978,1.379
539.249,1.381
539.519,1.388
539.790,1.373
540.061,1.362
540.331,1.375
540.602,1.382
540.873,1.387
541.144,1.382
541.414,1.381
541.685,1.375
541.956,1.371
542.227,1.371
542.498,1.369
542.769,1.358
543.040,1.360
543.311,1.373
543.582,1.386
543.853,1.382
544.124,1.385
544.396,1.389
544.667,1.389
544.938,1.391
545.209,1.383
545.480,1.364
545.752,1.377
546.023,1.376
546.294,1.374
546.566,1.360
546.837,1.357
547.109,1.363
547.380,1.368
547.652,1.368
547.923,1.362
548.195,1.369
548.466,1.383
548.738,1.391
549.009,1.401
549.281,1.386
549.553,1.365
549.824,1.356
550.096,1.342
550.368,1.344
550.640,1.358
550.911,1.363
551.183,1.377
551.455,1.396
551.727,1.412
551.999,1.400
552.271,1.378
552.543,1.364
552.815,1.366
553.087,1.368
553.359,1.380
553.631,1.387
553.903,1.380
554.175,1.385
554.447,1.398
554.719,1.394
554.991,1.386
555.263,1.378
555.535,1.370
555.808,1.364
556.080,1.366
556.352,1.361
556.624,1.364
556.897,1.361
557.169,1.353
557.441,1.352
557.714,1.354
557.986,1.349
558.258,1.355
558.531,1.351
558.803,1.368
559.076,1.372
559.348,1.366
559.621,1.351
559.893,1.348
560.166,1.360
560.438,1.356
560.711,1.356
560.983,1.353
561.256,1.351
561.528,1.352
561.801,1.362
562.074,1.364
562.346,1.369
562.619,1.384
562.892,1.376
563.164,1.370
563.437,1.369
563.710,1.376
563.983,1.368
564.255,1.353
564.528,1.347
564.801,1.366
565.074,1.378
565.346,1.367
565.619,1.359
565.892,1.370
566.165,1.374
566.438,1.358
566.711,1.347
566.984,1.356
567.257,1.357
567.529,1.355
567.802,1.362
568.075,1.378
568.348,1.372
568.621,1.361
568.894,1.362
569.167,1.358
569.440,1.352
569.713,1.344
569.986,1.329
570.259,1.337
570.532,1.339
570.805,1.345
571.078,1.348
571.351,1.350
571.625,1.360
571.898,1.356
572.171,1.338
572.444,1.327
572.717,1.342
572.990,1.361
573.263,1.359
573.536,1.344
573.809,1.338
574.083,1.328
574.356,1.335
574.629,1.345
574.902,1.352
575.175,1.338
575.448,1.332
575.721,1.332
575.995,1.333
576.268,1.332
576.541,1.333
576.814,1.354
577.087,1.357
577.361,1.349
577.634,1.346
577.907,1.340
578.180,1.322
578.453,1.321
578.727,1.326
579.000,1.323
579.273,1.327
579.546,1.339
579.820,1.349
580.093,1.352
580.366,1.342
580.639,1.339
580.913,1.339
581.186,1.343
581.459,1.336
581.732,1.329
582.005,1.322
582.279,1.326
582.552,1.322
582.825,1.329
583.098,1.334
583.372,1.337
583.645,1.345
583.918,1.346
584.191,1.344
584.464,1.334
584.738,1.334
585.011,1.336
585.284,1.341
585.557,1.340
585.831,1.338
586.104,1.351
586.377,1.363
586.650,1.378
586.923,1.368
587.196,1.360
587.470,1.347
587.743,1.331
588.016,1.330
588.289,1.334
588.562,1.341
588.835,1.354
589.109,1.338
589.382,1.326
589.655,1.322
589.928,1.318
590.201,1.318
590.474,1.327
590.747,1.346
591.020,1.349
591.293,1.347
591.567,1.356
591.840,1.356
592.113,1.345
592.386,1.338
592.659,1.325
592.932,1.322
593.205,1.333
593.478,1.337
593.751,1.327
594.024,1.326
594.297,1.329
594.570,1.317
594.843,1.329
595.116,1.345
595.389,1.343
595.662,1.341
595.934,1.331
596.207,1.332
596.480,1.345
596.753,1.357
597.026,1.358
597.299,1.345
597.572,1.336
597.844,1.326
598.117,1.321
598.390,1.318
598.663,1.326
598.936,1.326
599.208,1.332
599.481,1.335
599.754,1.339
600.026,1.331
600.299,1.318
600.572,1.317
600.844,1.325
601.117,1.320
601.390,1.310
601.662,1.311
601.935,1.309
602.207,1.302
602.480,1.321
602.752,1.331
603.025,1.317
603.297,1.312
603.570,1.318
603.842,1.335
604.115,1.354
604.387,1.348
604.660,1.348
604.932,1.335
605.204,1.337
605.477,1.349
605.749,1.357
606.021,1.362
606.294,1.358
606.566,1.346
606.838,1.334
607.110,1.341
607.383,1.340
607.655,1.336
607.927,1.334
608.199,1.342
608.471,1.343
608.743,1.346
609.015,1.331
609.287,1.326
609.559,1.325
609.831,1.329
610.103,1.338
610.375,1.335
610.647,1.323
610.919,1.319
611.191,1.319
611.463,1.328
611.735,1.330
612.007,1.327
612.278,1.319
612.550,1.316
612.822,1.319
613.094,1.333
613.365,1.329
613.637,1.327
613.909,1.334
614.180,1.332
614.452,1.335
614.723,1.328
614.995,1.320
615.266,1.315
615.538,1.328
615.809,1.339
616.081,1.339
616.352,1.326
616.623,1.324
616.895,1.319
617.166,1.312
617.437,1.304
617.709,1.304
617.980,1.316
618.251,1.325
618.522,1.329
618.793,1.338
619.065,1.358
619.336,1.364
619.607,1.340
619.878,1.336
620.149,1.358
620.420,1.363
620.691,1.352
620.962,1.347
621.232,1.355
621.503,1.352
621.774,1.337
622.045,1.340
622.316,1.337
622.586,1.348
622.857,1.354
623.128,1.358
623.398,1.348
623.669,1.351
623.940,1.343
624.210,1.324
624.481,1.316
624.751,1.328
625.021,1.327
625.292,1.319
625.562,1.322
625.833,1.318
626.103,1.310
626.373,1.307
626.643,1.304
626.914,1.318
627.184,1.329
627.454,1.332
627.724,1.322
627.994,1.326
628.264,1.327
628.534,1.327
628.804,1.316
629.074,1.319
629.344,1.330
629.614,1.330
629.884,1.321
630.154,1.311
630.424,1.308
630.693,1.301
630.963,1.293
631.233,1.283
631.502,1.288
631.772,1.307
632.041,1.318
632.311,1.314
632.581,1.314
632.850,1.318
633.119,1.310
633.389,1.309
633.658,1.304
633.928,1.304
634.197,1.316
634.466,1.325
634.735,1.329
635.004,1.333
635.274,1.325
635.543,1.324
635.812,1.324
636.081,1.318
636.350,1.320
636.619,1.323
636.888,1.327
637.157,1.326
637.426,1.326
637.694,1.337
637.963,1.332
638.232,1.327
638.501,1.319
638.769,1.313
639.038,1.320
639.307,1.321
639.575,1.329
639.844,1.335
640.112,1.317
640.381,1.309
640.649,1.305
640.917,1.312
641.186,1.319
641.454,1.311
641.722,1.311
641.991,1.315
642.259,1.313
642.527,1.301
642.795,1.303
643.063,1.299
643.331,1.280
643.599,1.292
643.867,1.305
644.135,1.314
644.403,1.312
644.671,1.319
644.939,1.314
645.206,1.325
645.474,1.333
645.742,1.328
646.009,1.310
646.277,1.312
646.545,1.318
646.812,1.323
647.080,1.328
647.347,1.330
647.615,1.336
647.882,1.326
648.149,1.313
648.417,1.317
648.684,1.317
648.951,1.317
649.219,1.322
649.486,1.321
649.753,1.313
650.020,1.306
650.287,1.295
650.554,1.293
650.821,1.294
651.088,1.292
651.355,1.300
651.622,1.319
651.889,1.319
652.155,1.319
652.422,1.319
652.689,1.314
652.956,1.324
653.222,1.326
653.489,1.339
653.755,1.351
654.022,1.344
654.288,1.326
654.555,1.317
654.821,1.316
655.088,1.321
655.354,1.327
655.620,1.329
655.887,1.331
656.153,1.333
656.419,1.337
656.685,1.335
656.951,1.330
657.217,1.331
657.483,1.326
657.749,1.314
658.015,1.312
658.281,1.320
658.547,1.313
658.813,1.299
659.079,1.301
659.345,1.304
659.610,1.302
659.876,1.309
660.142,1.314
660.407,1.311
660.673,1.317
660.939,1.317
661.204,1.316
661.470,1.303
661.735,1.301
662.000,1.306
662.266,1.307
662.531,1.300
662.796,1.304
663.062,1.314
663.327,1.302
663.592,1.299
663.857,1.307
664.122,1.306
664.388,1.306
664.653,1.299
664.918,1.311
665.183,1.314
665.448,1.315
665.712,1.325
665.977,1.331
666.242,1.336
666.507,1.324
666.772,1.289
667.037,1.289
667.301,1.289
667.566,1.297
667.831,1.305
668.095,1.304
668.360,1.307
668.624,1.311
668.889,1.299
669.153,1.301
669.418,1.292
669.682,1.292
669.946,1.302
670.211,1.317
670.475,1.327
670.739,1.334
671.004,1.340
671.268,1.353
671.532,1.384
671.796,1.390
672.060,1.342
672.324,1.343
672.588,1.341
672.852,1.343
673.116,1.363
673.380,1.411
673.644,1.400
673.908,1.321
674.172,1.314
674.436,1.314
674.700,1.316
674.963,1.314
675.227,1.319
675.491,1.318
675.754,1.307
676.018,1.310
676.282,1.310
676.545,1.310
676.809,1.306
677.072,1.302
677.336,1.299
677.599,1.303
677.863,1.304
678.126,1.299
678.389,1.309
678.653,1.322
678.916,1.313
679.179,1.301
679.442,1.295
679.706,1.302
679.969,1.309
680.232,1.306
680.495,1.313
680.758,1.327
681.021,1.326
681.284,1.312
681.547,1.303
681.810,1.306
682.073,1.320
682.336,1.328
682.599,1.328
682.862,1.319
683.125,1.320
683.388,1.320
683.651,1.326
683.913,1.322
684.176,1.313
684.439,1.297
684.702,1.289
684.964,1.288
685.227,1.295
685.490,1.308
685.752,1.324
686.015,1.332
686.277,1.315
686.540,1.318
686.802,1.309
687.065,1.300
687.327,1.301
687.590,1.298
687.852,1.289
688.115,1.284
688.377,1.281
688.639,1.290
688.902,1.289
689.164,1.294
689.426,1.308
689.689,1.316
689.951,1.310
690.213,1.303
690.475,1.303
690.737,1.308
691.000,1.294
691.262,1.293
691.524,1.292
691.786,1.300
692.048,1.316
692.310,1.321
692.572,1.302
692.834,1.280
693.096,1.280
693.358,1.294
693.620,1.311
693.882,1.317
694.144,1.316
694.406,1.320
694.668,1.310
694.930,1.313
695.192,1.301
695.453,1.301
695.715,1.311
695.977,1.314
696.239,1.305
696.501,1.299
696.762,1.307
697.024,1.307
697.286,1.298
697.548,1.292
697.809,1.295
698.071,1.293
698.333,1.291
698.594,1.296
698.856,1.296
699.118,1.306
699.379,1.310
699.641,1.306
699.902,1.310
700.164,1.316
700.426,1.303
700.687,1.298
700.949,1.290
701.210,1.288
701.472,1.287
701.733,1.287
701.995,1.287
702.256,1.293
702.518,1.285
702.779,1.284
703.041,1.293
703.302,1.315
703.563,1.315
703.825,1.295
704.086,1.292
704.348,1.293
704.609,1.284
704.871,1.296
705.132,1.313
705.393,1.308
705.655,1.289
705.916,1.299
706.177,1.303
706.439,1.296
706.700,1.304
706.961,1.298
707.223,1.294
707.484,1.295
707.745,1.269
708.007,1.260
708.268,1.261
708.529,1.247
708.790,1.244
709.052,1.233
709.313,1.228
709.574,1.235
709.835,1.240
710.097,1.237
710.358,1.226
710.619,1.211
710.881,1.202
711.142,1.205
711.403,1.198
711.664,1.193
711.926,1.190
712.187,1.184
712.448,1.193
712.709,1.206
712.970,1.218
713.232,1.222
713.493,1.222
713.754,1.223
714.015,1.226
714.277,1.233
714.538,1.238
714.799,1.241
715.060,1.246
715.322,1.241
715.583,1.231
715.844,1.231
716.105,1.217
716.367,1.206
716.628,1.213
716.889,1.220
717.150,1.218
717.411,1.205
717.673,1.200
717.934,1.211
718.195,1.218
718.457,1.214
718.718,1.197
718.979,1.195
719.240,1.208
719.502,1.212
719.763,1.219
720.024,1.222
720.286,1.221
720.547,1.224
720.808,1.218
721.069,1.219
721.331,1.214
721.592,1.217
721.853,1.220
722.115,1.212
722.376,1.220
722.638,1.224
722.899,1.224
723.160,1.222
723.422,1.209
723.683,1.201
723.944,1.203
724.206,1.211
724.467,1.202
724.729,1.205
724.990,1.212
725.252,1.222
725.513,1.222
725.775,1.203
726.036,1.185
726.298,1.195
726.559,1.198
726.821,1.198
727.082,1.199
727.344,1.208
727.605,1.201
727.867,1.201
728.128,1.200
728.390,1.204
728.652,1.203
728.913,1.221
729.175,1.231
729.436,1.220
729.698,1.225
729.960,1.234
730.221,1.220
730.483,1.211
730.745,1.205
731.007,1.211
731.268,1.202
731.530,1.197
731.792,1.206
732.054,1.210
732.315,1.210
732.577,1.218
732.839,1.215
733.101,1.208
733.363,1.204
733.625,1.208
733.887,1.208
734.149,1.212
734.411,1.209
734.673,1.217
734.935,1.213
735.197,1.213
735.459,1.212
735.721,1.215
735.983,1.210
736.245,1.199
736.507,1.191
736.769,1.207
737.031,1.213
737.293,1.211
737.555,1.196
737.818,1.185
738.080,1.180
738.342,1.177
738.604,1.180
738.867,1.189
739.129,1.195
739.391,1.196
739.654,1.199
739.916,1.201
740.178,1.197
740.441,1.208
740.703,1.215
740.966,1.203
741.228,1.199
741.491,1.206
741.753,1.200
742.016,1.209
742.278,1.201
742.541,1.199
742.804,1.210
743.066,1.214
743.329,1.216
743.592,1.211
743.854,1.202
744.117,1.212
744.380,1.219
744.643,1.216
744.905,1.208
745.168,1.210
745.431,1.207
745.694,1.202
745.957,1.197
746.220,1.195
746.483,1.194
746.746,1.191
747.009,1.191
