Wavelength (nm),Intensity BB2.1,,C:/Users/Brend/Desktop/LED Spectras v2/Blinds/-Interference/Spectrometer Data (Newer).sp,,,BB2.1,
379.792,1.571,,2018-07-02 14:39:29,,Integration Time,100 ms,
380.000,1.556,,Analyze Light,,Number of Scans to Average,25,
380.209,1.554,,,,Smoothing,0,
380.418,1.571
380.627,1.586
380.837,1.594
381.048,1.602
381.259,1.598
381.471,1.591
381.683,1.602
381.896,1.610
382.110,1.608
382.324,1.608
382.538,1.625
382.753,1.628
382.969,1.621
383.185,1.603
383.402,1.604
383.619,1.600
383.837,1.613
384.055,1.628
384.274,1.643
384.493,1.645
384.712,1.646
384.932,1.642
385.153,1.647
385.374,1.648
385.596,1.651
385.818,1.656
386.040,1.674
386.263,1.688
386.487,1.697
386.710,1.686
386.935,1.678
387.159,1.668
387.385,1.667
387.610,1.668
387.836,1.668
388.063,1.673
388.289,1.682
388.517,1.683
388.744,1.687
388.972,1.682
389.201,1.695
389.430,1.697
389.659,1.698
389.889,1.702
390.119,1.699
390.349,1.698
390.580,1.707
390.811,1.713
391.042,1.709
391.274,1.718
391.507,1.729
391.739,1.727
391.972,1.716
392.205,1.715
392.439,1.723
392.673,1.726
392.907,1.730
393.142,1.740
393.377,1.746
393.612,1.750
393.848,1.754
394.084,1.753
394.320,1.750
394.557,1.750
394.794,1.756
395.031,1.757
395.269,1.769
395.507,1.784
395.745,1.783
395.983,1.786
396.222,1.789
396.461,1.802
396.700,1.824
396.940,1.832
397.180,1.829
397.420,1.824
397.660,1.816
397.901,1.805
398.142,1.810
398.383,1.813
398.625,1.797
398.866,1.806
399.108,1.826
399.351,1.838
399.593,1.857
399.836,1.843
400.079,1.834
400.322,1.833
400.566,1.830
400.809,1.830
401.053,1.826
401.298,1.827
401.542,1.827
401.787,1.847
402.031,1.860
402.277,1.858
402.522,1.867
402.767,1.864
403.013,1.860
403.259,1.850
403.505,1.853
403.752,1.856
403.998,1.853
404.245,1.856
404.492,1.884
404.739,1.899
404.986,1.905
405.234,1.907
405.482,1.905
405.730,1.896
405.978,1.891
406.226,1.897
406.475,1.886
406.723,1.879
406.972,1.898
407.221,1.913
407.470,1.918
407.720,1.921
407.969,1.917
408.219,1.897
408.469,1.919
408.719,1.935
408.969,1.929
409.219,1.935
409.470,1.944
409.720,1.931
409.971,1.946
410.222,1.951
410.473,1.952
410.724,1.950
410.976,1.956
411.227,1.964
411.479,1.971
411.731,1.970
411.983,1.965
412.235,1.966
412.487,1.970
412.740,1.964
412.992,1.971
413.245,1.982
413.497,1.978
413.750,1.978
414.003,1.977
414.257,1.968
414.510,1.967
414.763,1.978
415.017,1.994
415.270,1.997
415.524,1.997
415.778,1.990
416.032,1.997
416.286,2.000
416.540,2.009
416.794,2.015
417.049,2.018
417.303,2.007
417.558,2.018
417.812,2.022
418.067,2.011
418.322,2.008
418.577,2.019
418.832,2.016
419.088,2.014
419.343,2.007
419.598,2.014
419.854,1.991
420.109,2.008
420.365,2.022
420.621,2.038
420.876,2.039
421.132,2.044
421.388,2.041
421.645,2.029
421.901,2.032
422.157,2.038
422.413,2.041
422.670,2.051
422.926,2.045
423.183,2.037
423.439,2.022
423.696,2.041
423.953,2.044
424.210,2.070
424.467,2.081
424.724,2.063
424.981,2.065
425.238,2.076
425.495,2.083
425.753,2.109
426.010,2.109
426.267,2.108
426.525,2.117
426.782,2.130
427.040,2.136
427.298,2.153
427.555,2.174
427.813,2.198
428.071,2.208
428.329,2.228
428.587,2.249
428.845,2.268
429.103,2.295
429.361,2.307
429.619,2.327
429.878,2.355
430.136,2.387
430.394,2.420
430.653,2.446
430.911,2.506
431.170,2.550
431.428,2.587
431.687,2.624
431.946,2.680
432.204,2.717
432.463,2.763
432.722,2.827
432.981,2.888
433.240,2.954
433.499,3.044
433.758,3.129
434.017,3.219
434.276,3.283
434.535,3.366
434.794,3.450
435.053,3.553
435.312,3.652
435.572,3.756
435.831,3.847
436.090,3.992
436.350,4.118
436.609,4.262
436.869,4.385
437.128,4.538
437.388,4.703
437.647,4.865
437.907,5.035
438.166,5.244
438.426,5.401
438.686,5.568
438.946,5.755
439.205,5.966
439.465,6.180
439.725,6.444
439.985,6.681
440.245,6.942
440.505,7.163
440.765,7.431
441.025,7.689
441.285,7.995
441.545,8.288
441.805,8.586
442.065,8.886
442.325,9.224
442.585,9.569
442.846,9.970
443.106,10.329
443.366,10.747
443.626,11.172
443.887,11.592
444.147,12.031
444.407,12.513
444.668,12.978
444.928,13.482
445.189,14.023
445.449,14.600
445.710,15.148
445.970,15.773
446.231,16.384
446.491,17.045
446.752,17.763
447.012,18.470
447.273,19.222
447.534,20.002
447.794,20.776
448.055,21.556
448.316,22.408
448.577,23.302
448.837,24.240
449.098,25.189
449.359,26.158
449.620,27.166
449.881,28.164
450.142,29.163
450.403,30.215
450.664,31.334
450.924,32.449
451.185,33.596
451.446,34.745
451.707,35.902
451.969,37.076
452.230,38.296
452.491,39.478
452.752,40.650
453.013,41.759
453.274,42.892
453.535,44.009
453.796,45.068
454.058,46.073
454.319,47.102
454.580,48.060
454.841,48.951
455.103,49.738
455.364,50.507
455.625,51.207
455.887,51.903
456.148,52.482
456.409,53.018
456.671,53.499
456.932,53.817
457.194,54.061
457.455,54.230
457.716,54.317
457.978,54.332
458.239,54.266
458.501,54.143
458.763,53.914
459.024,53.619
459.286,53.236
459.547,52.757
459.809,52.224
460.071,51.570
460.332,50.813
460.594,50.071
460.856,49.263
461.117,48.429
461.379,47.568
461.641,46.672
461.903,45.725
462.164,44.749
462.426,43.790
462.688,42.821
462.950,41.879
463.212,40.896
463.474,39.911
463.736,38.917
463.998,37.960
464.260,37.042
464.522,36.164
464.784,35.304
465.046,34.484
465.308,33.681
465.570,32.939
465.832,32.217
466.094,31.527
466.356,30.869
466.618,30.271
466.880,29.637
467.142,29.045
467.405,28.463
467.667,27.907
467.929,27.445
468.191,26.970
468.454,26.520
468.716,26.076
468.978,25.643
469.241,25.189
469.503,24.731
469.765,24.345
470.028,23.970
470.290,23.589
470.552,23.202
470.815,22.843
471.077,22.483
471.340,22.100
471.602,21.735
471.865,21.374
472.128,21.013
472.390,20.628
472.653,20.263
472.915,19.898
473.178,19.528
473.441,19.119
473.703,18.741
473.966,18.339
474.229,17.962
474.492,17.564
474.755,17.163
475.017,16.761
475.280,16.390
475.543,16.012
475.806,15.661
476.069,15.253
476.332,14.866
476.595,14.476
476.858,14.118
477.121,13.697
477.384,13.321
477.647,12.977
477.910,12.650
478.173,12.308
478.436,11.994
478.699,11.655
478.962,11.358
479.226,11.052
479.489,10.756
479.752,10.444
480.015,10.168
480.279,9.880
480.542,9.628
480.805,9.333
481.069,9.079
481.332,8.831
481.595,8.627
481.859,8.414
482.122,8.247
482.386,8.040
482.649,7.814
482.913,7.608
483.177,7.439
483.440,7.235
483.704,7.064
483.967,6.901
484.231,6.767
484.495,6.602
484.759,6.479
485.022,6.324
485.286,6.157
485.550,6.007
485.814,5.872
486.078,5.689
486.342,5.574
486.606,5.472
486.869,5.372
487.133,5.246
487.397,5.147
487.662,5.046
487.926,4.945
488.190,4.821
488.454,4.719
488.718,4.579
488.982,4.480
489.246,4.357
489.511,4.270
489.775,4.159
490.039,4.059
490.304,3.957
490.568,3.866
490.832,3.752
491.097,3.692
491.361,3.617
491.626,3.533
491.890,3.442
492.155,3.367
492.419,3.279
492.684,3.229
492.949,3.138
493.213,3.048
493.478,2.988
493.743,2.936
494.008,2.835
494.272,2.751
494.537,2.700
494.802,2.666
495.067,2.632
495.332,2.595
495.597,2.543
495.862,2.486
496.127,2.426
496.392,2.396
496.657,2.353
496.922,2.312
497.187,2.273
497.452,2.244
497.718,2.223
497.983,2.209
498.248,2.171
498.513,2.131
498.779,2.093
499.044,2.099
499.310,2.085
499.575,2.046
499.841,2.018
500.106,1.999
500.372,1.971
500.637,1.936
500.903,1.923
501.168,1.936
501.434,1.903
501.700,1.873
501.966,1.847
502.231,1.838
502.497,1.818
502.763,1.800
503.029,1.780
503.295,1.764
503.561,1.764
503.827,1.752
504.093,1.752
504.359,1.747
504.625,1.729
504.891,1.726
505.157,1.708
505.423,1.695
505.690,1.667
505.956,1.651
506.222,1.653
506.489,1.654
506.755,1.666
507.021,1.662
507.288,1.647
507.554,1.649
507.821,1.637
508.087,1.634
508.354,1.634
508.621,1.636
508.887,1.624
509.154,1.607
509.421,1.608
509.687,1.596
509.954,1.582
510.221,1.573
510.488,1.561
510.755,1.574
511.022,1.581
511.289,1.573
511.556,1.551
511.823,1.542
512.090,1.547
512.357,1.557
512.624,1.541
512.891,1.536
513.159,1.506
513.426,1.494
513.693,1.487
513.960,1.489
514.228,1.484
514.495,1.485
514.763,1.482
515.030,1.474
515.298,1.465
515.565,1.456
515.833,1.466
516.100,1.457
516.368,1.453
516.636,1.460
516.904,1.459
517.171,1.447
517.439,1.440
517.707,1.436
517.975,1.435
518.243,1.436
518.511,1.443
518.779,1.440
519.047,1.421
519.315,1.441
519.583,1.437
519.851,1.422
520.119,1.413
520.387,1.413
520.656,1.405
520.924,1.407
521.192,1.415
521.461,1.415
521.729,1.415
521.997,1.423
522.266,1.420
522.534,1.414
522.803,1.409
523.071,1.412
523.340,1.400
523.609,1.384
523.877,1.372
524.146,1.369
524.415,1.376
524.684,1.386
524.952,1.385
525.221,1.372
525.490,1.385
525.759,1.402
526.028,1.406
526.297,1.392
526.566,1.375
526.835,1.374
527.104,1.378
527.373,1.379
527.642,1.376
527.912,1.359
528.181,1.356
528.450,1.359
528.719,1.366
528.989,1.378
529.258,1.393
529.528,1.390
529.797,1.366
530.067,1.363
530.336,1.376
530.606,1.360
530.875,1.349
531.145,1.348
531.414,1.349
531.684,1.368
531.954,1.370
532.224,1.361
532.493,1.353
532.763,1.336
533.033,1.339
533.303,1.351
533.573,1.354
533.843,1.352
534.113,1.339
534.383,1.340
534.653,1.331
534.923,1.335
535.193,1.342
535.463,1.342
535.733,1.354
536.004,1.363
536.274,1.364
536.544,1.355
536.814,1.345
537.085,1.336
537.355,1.334
537.626,1.351
537.896,1.363
538.166,1.360
538.437,1.349
538.707,1.336
538.978,1.330
539.249,1.343
539.519,1.350
539.790,1.332
540.061,1.308
540.331,1.316
540.602,1.326
540.873,1.331
541.144,1.338
541.414,1.345
541.685,1.334
541.956,1.338
542.227,1.331
542.498,1.330
542.769,1.321
543.040,1.329
543.311,1.342
543.582,1.353
543.853,1.360
544.124,1.354
544.396,1.359
544.667,1.361
544.938,1.356
545.209,1.345
545.480,1.314
545.752,1.324
546.023,1.338
546.294,1.341
546.566,1.331
546.837,1.321
547.109,1.320
547.380,1.324
547.652,1.323
547.923,1.320
548.195,1.314
548.466,1.334
548.738,1.358
549.009,1.371
549.281,1.348
549.553,1.340
549.824,1.331
550.096,1.311
550.368,1.311
550.640,1.315
550.911,1.315
551.183,1.322
551.455,1.344
551.727,1.364
551.999,1.358
552.271,1.338
552.543,1.325
552.815,1.333
553.087,1.336
553.359,1.345
553.631,1.344
553.903,1.340
554.175,1.341
554.447,1.356
554.719,1.356
554.991,1.349
555.263,1.348
555.535,1.341
555.808,1.338
556.080,1.339
556.352,1.329
556.624,1.328
556.897,1.328
557.169,1.312
557.441,1.320
557.714,1.318
557.986,1.313
558.258,1.324
558.531,1.319
558.803,1.325
559.076,1.323
559.348,1.318
559.621,1.312
559.893,1.315
560.166,1.325
560.438,1.324
560.711,1.320
560.983,1.322
561.256,1.321
561.528,1.328
561.801,1.340
562.074,1.338
562.346,1.341
562.619,1.356
562.892,1.353
563.164,1.341
563.437,1.342
563.710,1.346
563.983,1.335
564.255,1.313
564.528,1.315
564.801,1.334
565.074,1.343
565.346,1.338
565.619,1.322
565.892,1.326
566.165,1.330
566.438,1.322
566.711,1.314
566.984,1.308
567.257,1.304
567.529,1.312
567.802,1.330
568.075,1.343
568.348,1.342
568.621,1.334
568.894,1.338
569.167,1.323
569.440,1.319
569.713,1.315
569.986,1.311
570.259,1.309
570.532,1.303
570.805,1.311
571.078,1.320
571.351,1.312
571.625,1.312
571.898,1.316
572.171,1.302
572.444,1.292
572.717,1.306
572.990,1.324
573.263,1.324
573.536,1.315
573.809,1.304
574.083,1.295
574.356,1.296
574.629,1.303
574.902,1.316
575.175,1.313
575.448,1.313
575.721,1.300
575.995,1.295
576.268,1.298
576.541,1.298
576.814,1.310
577.087,1.320
577.361,1.318
577.634,1.318
577.907,1.309
578.180,1.289
578.453,1.285
578.727,1.300
579.000,1.299
579.273,1.301
579.546,1.319
579.820,1.326
580.093,1.328
580.366,1.320
580.639,1.304
580.913,1.302
581.186,1.310
581.459,1.304
581.732,1.301
582.005,1.286
582.279,1.285
582.552,1.289
582.825,1.301
583.098,1.302
583.372,1.310
583.645,1.315
583.918,1.319
584.191,1.321
584.464,1.316
584.738,1.305
585.011,1.309
585.284,1.309
585.557,1.303
585.831,1.302
586.104,1.319
586.377,1.329
586.650,1.345
586.923,1.339
587.196,1.338
587.470,1.332
587.743,1.319
588.016,1.316
588.289,1.315
588.562,1.320
588.835,1.330
589.109,1.314
589.382,1.303
589.655,1.301
589.928,1.293
590.201,1.294
590.474,1.299
590.747,1.314
591.020,1.315
591.293,1.313
591.567,1.316
591.840,1.313
592.113,1.301
592.386,1.299
592.659,1.293
592.932,1.289
593.205,1.294
593.478,1.296
593.751,1.290
594.024,1.293
594.297,1.294
594.570,1.283
594.843,1.292
595.116,1.301
595.389,1.305
595.662,1.305
595.934,1.302
596.207,1.306
596.480,1.314
596.753,1.319
597.026,1.318
597.299,1.313
597.572,1.318
597.844,1.320
598.117,1.314
598.390,1.301
598.663,1.298
598.936,1.299
599.208,1.305
599.481,1.315
599.754,1.319
600.026,1.311
600.299,1.289
600.572,1.288
600.844,1.294
601.117,1.282
601.390,1.274
601.662,1.280
601.935,1.281
602.207,1.273
602.480,1.286
602.752,1.292
603.025,1.282
603.297,1.279
603.570,1.288
603.842,1.293
604.115,1.310
604.387,1.315
604.660,1.315
604.932,1.301
605.204,1.299
605.477,1.310
605.749,1.318
606.021,1.328
606.294,1.320
606.566,1.310
606.838,1.301
607.110,1.312
607.383,1.309
607.655,1.300
607.927,1.306
608.199,1.318
608.471,1.322
608.743,1.316
609.015,1.299
609.287,1.292
609.559,1.298
609.831,1.301
610.103,1.308
610.375,1.305
610.647,1.294
610.919,1.285
611.191,1.291
611.463,1.302
611.735,1.310
612.007,1.303
612.278,1.299
612.550,1.301
612.822,1.311
613.094,1.321
613.365,1.320
613.637,1.306
613.909,1.319
614.180,1.310
614.452,1.304
614.723,1.305
614.995,1.302
615.266,1.296
615.538,1.309
615.809,1.321
616.081,1.316
616.352,1.298
616.623,1.290
616.895,1.293
617.166,1.302
617.437,1.301
617.709,1.299
617.980,1.293
618.251,1.301
618.522,1.304
618.793,1.306
619.065,1.329
619.336,1.336
619.607,1.304
619.878,1.295
620.149,1.310
620.420,1.316
620.691,1.304
620.962,1.303
621.232,1.310
621.503,1.313
621.774,1.299
622.045,1.290
622.316,1.295
622.586,1.309
622.857,1.322
623.128,1.326
623.398,1.319
623.669,1.314
623.940,1.306
624.210,1.292
624.481,1.299
624.751,1.310
625.021,1.290
625.292,1.294
625.562,1.299
625.833,1.310
626.103,1.296
626.373,1.295
626.643,1.300
626.914,1.310
627.184,1.314
627.454,1.315
627.724,1.302
627.994,1.292
628.264,1.299
628.534,1.293
628.804,1.281
629.074,1.280
629.344,1.293
629.614,1.295
629.884,1.293
630.154,1.288
630.424,1.290
630.693,1.273
630.963,1.258
631.233,1.247
631.502,1.255
631.772,1.279
632.041,1.293
632.311,1.292
632.581,1.298
632.850,1.305
633.119,1.300
633.389,1.288
633.658,1.277
633.928,1.268
634.197,1.273
634.466,1.283
634.735,1.299
635.004,1.302
635.274,1.294
635.543,1.298
635.812,1.299
636.081,1.298
636.350,1.296
636.619,1.292
636.888,1.292
637.157,1.288
637.426,1.296
637.694,1.309
637.963,1.308
638.232,1.300
638.501,1.299
638.769,1.293
639.038,1.301
639.307,1.308
639.575,1.309
639.844,1.312
640.112,1.299
640.381,1.292
640.649,1.285
640.917,1.290
641.186,1.299
641.454,1.295
641.722,1.295
641.991,1.291
642.259,1.292
642.527,1.278
642.795,1.283
643.063,1.281
643.331,1.271
643.599,1.274
643.867,1.284
644.135,1.286
644.403,1.286
644.671,1.296
644.939,1.296
645.206,1.306
645.474,1.308
645.742,1.305
646.009,1.288
646.277,1.277
646.545,1.281
646.812,1.286
647.080,1.303
647.347,1.312
647.615,1.312
647.882,1.302
648.149,1.290
648.417,1.284
648.684,1.281
648.951,1.290
649.219,1.306
649.486,1.306
649.753,1.305
650.020,1.305
650.287,1.292
650.554,1.284
650.821,1.278
651.088,1.282
651.355,1.281
651.622,1.298
651.889,1.292
652.155,1.286
652.422,1.286
652.689,1.284
652.956,1.300
653.222,1.295
653.489,1.311
653.755,1.333
654.022,1.320
654.288,1.301
654.555,1.295
654.821,1.284
655.088,1.292
655.354,1.302
655.620,1.305
655.887,1.308
656.153,1.300
656.419,1.303
656.685,1.303
656.951,1.301
657.217,1.301
657.483,1.295
657.749,1.285
658.015,1.290
658.281,1.298
658.547,1.291
658.813,1.280
659.079,1.282
659.345,1.275
659.610,1.273
659.876,1.275
660.142,1.275
660.407,1.277
660.673,1.284
660.939,1.293
661.204,1.291
661.470,1.284
661.735,1.284
662.000,1.285
662.266,1.292
662.531,1.282
662.796,1.284
663.062,1.294
663.327,1.283
663.592,1.278
663.857,1.284
664.122,1.282
664.388,1.279
664.653,1.279
664.918,1.288
665.183,1.292
665.448,1.290
665.712,1.298
665.977,1.294
666.242,1.295
666.507,1.284
666.772,1.259
667.037,1.267
667.301,1.272
667.566,1.277
667.831,1.285
668.095,1.292
668.360,1.285
668.624,1.279
668.889,1.270
669.153,1.284
669.418,1.280
669.682,1.281
669.946,1.292
670.211,1.302
670.475,1.309
670.739,1.309
671.004,1.316
671.268,1.335
671.532,1.370
671.796,1.375
672.060,1.320
672.324,1.316
672.588,1.314
672.852,1.319
673.116,1.338
673.380,1.397
673.644,1.393
673.908,1.305
674.172,1.289
674.436,1.291
674.700,1.294
674.963,1.293
675.227,1.296
675.491,1.301
675.754,1.291
676.018,1.291
676.282,1.296
676.545,1.298
676.809,1.283
677.072,1.271
677.336,1.271
677.599,1.277
677.863,1.279
678.126,1.273
678.389,1.283
678.653,1.295
678.916,1.293
679.179,1.283
679.442,1.277
679.706,1.279
679.969,1.285
680.232,1.284
680.495,1.293
680.758,1.311
681.021,1.310
681.284,1.298
681.547,1.289
681.810,1.283
682.073,1.288
682.336,1.312
682.599,1.310
682.862,1.299
683.125,1.296
683.388,1.299
683.651,1.301
683.913,1.303
684.176,1.292
684.439,1.281
684.702,1.272
684.964,1.259
685.227,1.268
685.490,1.280
685.752,1.295
686.015,1.305
686.277,1.299
686.540,1.286
686.802,1.279
687.065,1.272
687.327,1.283
687.590,1.288
687.852,1.278
688.115,1.272
688.377,1.262
688.639,1.267
688.902,1.272
689.164,1.283
689.426,1.295
689.689,1.295
689.951,1.293
690.213,1.285
690.475,1.285
690.737,1.282
691.000,1.284
691.262,1.283
691.524,1.290
691.786,1.300
692.048,1.311
692.310,1.310
692.572,1.285
692.834,1.265
693.096,1.261
693.358,1.269
693.620,1.291
693.882,1.305
694.144,1.308
694.406,1.300
694.668,1.300
694.930,1.299
695.192,1.291
695.453,1.288
695.715,1.293
695.977,1.288
696.239,1.279
696.501,1.283
696.762,1.291
697.024,1.293
697.286,1.280
697.548,1.268
697.809,1.279
698.071,1.279
698.333,1.278
698.594,1.283
698.856,1.280
699.118,1.290
699.379,1.293
699.641,1.293
699.902,1.303
700.164,1.302
700.426,1.288
700.687,1.284
700.949,1.278
701.210,1.280
701.472,1.280
701.733,1.270
701.995,1.262
702.256,1.272
702.518,1.268
702.779,1.255
703.041,1.269
703.302,1.303
703.563,1.299
703.825,1.277
704.086,1.273
704.348,1.277
704.609,1.275
704.871,1.292
705.132,1.308
705.393,1.302
705.655,1.279
705.916,1.290
706.177,1.292
706.439,1.283
706.700,1.286
706.961,1.289
707.223,1.285
707.484,1.286
707.745,1.260
708.007,1.255
708.268,1.254
708.529,1.243
708.790,1.238
709.052,1.224
709.313,1.218
709.574,1.232
709.835,1.241
710.097,1.239
710.358,1.225
710.619,1.218
710.881,1.211
711.142,1.202
711.403,1.201
711.664,1.202
711.926,1.204
712.187,1.208
712.448,1.220
712.709,1.224
712.970,1.221
713.232,1.219
713.493,1.228
713.754,1.235
714.015,1.234
714.277,1.237
714.538,1.238
714.799,1.243
715.060,1.255
715.322,1.249
715.583,1.247
715.844,1.242
716.105,1.233
716.367,1.224
716.628,1.227
716.889,1.227
717.150,1.224
717.411,1.217
717.673,1.213
717.934,1.225
718.195,1.225
718.457,1.223
718.718,1.219
718.979,1.205
719.240,1.210
719.502,1.222
719.763,1.229
720.024,1.235
720.286,1.233
720.547,1.229
720.808,1.219
721.069,1.220
721.331,1.222
721.592,1.228
721.853,1.240
722.115,1.232
722.376,1.240
722.638,1.240
722.899,1.225
723.160,1.224
723.422,1.220
723.683,1.213
723.944,1.221
724.206,1.235
724.467,1.220
724.729,1.222
724.990,1.225
725.252,1.235
725.513,1.235
725.775,1.220
726.036,1.207
726.298,1.215
726.559,1.223
726.821,1.230
727.082,1.225
727.344,1.224
727.605,1.222
727.867,1.223
728.128,1.221
728.390,1.223
728.652,1.221
728.913,1.233
729.175,1.240
729.436,1.231
729.698,1.233
729.960,1.239
730.221,1.224
730.483,1.211
730.745,1.209
731.007,1.217
731.268,1.217
731.530,1.221
731.792,1.223
732.054,1.219
732.315,1.223
732.577,1.227
732.839,1.225
733.101,1.211
733.363,1.208
733.625,1.205
733.887,1.213
734.149,1.221
734.411,1.229
734.673,1.233
734.935,1.235
735.197,1.230
735.459,1.228
735.721,1.239
735.983,1.227
736.245,1.201
736.507,1.199
736.769,1.218
737.031,1.219
737.293,1.222
737.555,1.211
737.818,1.204
738.080,1.212
738.342,1.210
738.604,1.210
738.867,1.207
739.129,1.205
739.391,1.208
739.654,1.204
739.916,1.203
740.178,1.209
740.441,1.222
740.703,1.231
740.966,1.219
741.228,1.215
741.491,1.219
741.753,1.215
742.016,1.217
742.278,1.217
742.541,1.214
742.804,1.220
743.066,1.219
743.329,1.221
743.592,1.223
743.854,1.211
744.117,1.218
744.380,1.223
744.643,1.223
744.905,1.220
745.168,1.219
745.431,1.220
745.694,1.214
745.957,1.217
746.220,1.213
746.483,1.212
746.746,1.217
747.009,1.217
747.272,1.231
747.535,1.247
