Wavelength (nm),Intensity BB6.1,,C:/Users/Brend/Desktop/LED Spectras v2/Blinds/-Interference/Spectrometer Data (Newer).sp,,,BB6.1,
379.792,1.647,,2018-07-02 14:37:52,,Integration Time,100 ms,
380.000,1.635,,Analyze Light,,Number of Scans to Average,25,
380.209,1.628,,,,Smoothing,0,
380.418,1.636
380.627,1.648
380.837,1.660
381.048,1.675
381.259,1.674
381.471,1.666
381.683,1.669
381.896,1.672
382.110,1.677
382.324,1.675
382.538,1.690
382.753,1.697
382.969,1.694
383.185,1.675
383.402,1.680
383.619,1.685
383.837,1.693
384.055,1.698
384.274,1.711
384.493,1.716
384.712,1.717
384.932,1.720
385.153,1.729
385.374,1.729
385.596,1.734
385.818,1.746
386.040,1.764
386.263,1.771
386.487,1.772
386.710,1.767
386.935,1.760
387.159,1.756
387.385,1.758
387.610,1.759
387.836,1.746
388.063,1.748
388.289,1.758
388.517,1.764
388.744,1.763
388.972,1.759
389.201,1.785
389.430,1.787
389.659,1.779
389.889,1.775
390.119,1.780
390.349,1.781
390.580,1.791
390.811,1.814
391.042,1.807
391.274,1.808
391.507,1.811
391.739,1.813
391.972,1.806
392.205,1.808
392.439,1.823
392.673,1.829
392.907,1.822
393.142,1.829
393.377,1.837
393.612,1.842
393.848,1.854
394.084,1.853
394.320,1.859
394.557,1.859
394.794,1.857
395.031,1.864
395.269,1.877
395.507,1.883
395.745,1.884
395.983,1.881
396.222,1.894
396.461,1.907
396.700,1.925
396.940,1.940
397.180,1.936
397.420,1.929
397.660,1.917
397.901,1.907
398.142,1.914
398.383,1.916
398.625,1.907
398.866,1.914
399.108,1.937
399.351,1.958
399.593,1.975
399.836,1.964
400.079,1.956
400.322,1.947
400.566,1.946
400.809,1.932
401.053,1.936
401.298,1.947
401.542,1.951
401.787,1.970
402.031,1.983
402.277,1.981
402.522,1.989
402.767,1.990
403.013,1.986
403.259,1.978
403.505,1.986
403.752,1.985
403.998,1.981
404.245,1.987
404.492,2.008
404.739,2.022
404.986,2.017
405.234,2.029
405.482,2.022
405.730,2.014
405.978,2.012
406.226,2.018
406.475,2.010
406.723,2.010
406.972,2.027
407.221,2.040
407.470,2.046
407.720,2.048
407.969,2.047
408.219,2.025
408.469,2.046
408.719,2.060
408.969,2.059
409.219,2.068
409.470,2.087
409.720,2.070
409.971,2.074
410.222,2.089
410.473,2.101
410.724,2.090
410.976,2.092
411.227,2.099
411.479,2.113
411.731,2.106
411.983,2.112
412.235,2.110
412.487,2.111
412.740,2.102
412.992,2.111
413.245,2.112
413.497,2.117
413.750,2.116
414.003,2.111
414.257,2.107
414.510,2.112
414.763,2.115
415.017,2.129
415.270,2.139
415.524,2.140
415.778,2.132
416.032,2.136
416.286,2.136
416.540,2.144
416.794,2.140
417.049,2.154
417.303,2.150
417.558,2.150
417.812,2.158
418.067,2.146
418.322,2.149
418.577,2.150
418.832,2.138
419.088,2.142
419.343,2.139
419.598,2.155
419.854,2.141
420.109,2.155
420.365,2.161
420.621,2.173
420.876,2.175
421.132,2.181
421.388,2.176
421.645,2.172
421.901,2.175
422.157,2.186
422.413,2.171
422.670,2.172
422.926,2.161
423.183,2.161
423.439,2.151
423.696,2.176
423.953,2.188
424.210,2.222
424.467,2.225
424.724,2.214
424.981,2.217
425.238,2.218
425.495,2.228
425.753,2.256
426.010,2.270
426.267,2.283
426.525,2.296
426.782,2.320
427.040,2.319
427.298,2.341
427.555,2.375
427.813,2.406
428.071,2.423
428.329,2.449
428.587,2.467
428.845,2.492
429.103,2.530
429.361,2.558
429.619,2.586
429.878,2.632
430.136,2.670
430.394,2.728
430.653,2.771
430.911,2.844
431.170,2.913
431.428,2.969
431.687,3.002
431.946,3.069
432.204,3.157
432.463,3.230
432.722,3.310
432.981,3.396
433.240,3.469
433.499,3.592
433.758,3.683
434.017,3.803
434.276,3.893
434.535,4.001
434.794,4.101
435.053,4.229
435.312,4.357
435.572,4.505
435.831,4.654
436.090,4.840
436.350,5.002
436.609,5.181
436.869,5.353
437.128,5.526
437.388,5.704
437.647,5.898
437.907,6.094
438.166,6.355
438.426,6.555
438.686,6.778
438.946,7.009
439.205,7.268
439.465,7.515
439.725,7.801
439.985,8.083
440.245,8.367
440.505,8.637
440.765,8.967
441.025,9.276
441.285,9.630
441.545,9.985
441.805,10.347
442.065,10.718
442.325,11.138
442.585,11.545
442.846,11.982
443.106,12.420
443.366,12.944
443.626,13.443
443.887,13.962
444.147,14.513
444.407,15.073
444.668,15.681
444.928,16.318
445.189,16.968
445.449,17.695
445.710,18.415
445.970,19.196
446.231,19.976
446.491,20.820
446.752,21.660
447.012,22.564
447.273,23.504
447.534,24.487
447.794,25.489
448.055,26.504
448.316,27.558
448.577,28.685
448.837,29.858
449.098,31.018
449.359,32.224
449.620,33.466
449.881,34.689
450.142,35.923
450.403,37.188
450.664,38.509
450.924,39.834
451.185,41.162
451.446,42.466
451.707,43.776
451.969,45.062
452.230,46.373
452.491,47.619
452.752,48.809
453.013,49.923
453.274,51.030
453.535,52.114
453.796,53.094
454.058,53.959
454.319,54.828
454.580,55.574
454.841,56.216
455.103,56.765
455.364,57.262
455.625,57.614
455.887,57.945
456.148,58.135
456.409,58.236
456.671,58.272
456.932,58.171
457.194,57.928
457.455,57.579
457.716,57.184
457.978,56.696
458.239,56.131
458.501,55.492
458.763,54.807
459.024,54.011
459.286,53.193
459.547,52.275
459.809,51.312
460.071,50.275
460.332,49.225
460.594,48.183
460.856,47.120
461.117,46.082
461.379,45.020
461.641,44.037
461.903,42.982
462.164,41.987
462.426,41.006
462.688,40.011
462.950,39.063
463.212,38.154
463.474,37.266
463.736,36.375
463.998,35.490
464.260,34.732
464.522,33.986
464.784,33.293
465.046,32.583
465.308,31.966
465.570,31.361
465.832,30.783
466.094,30.272
466.356,29.786
466.618,29.268
466.880,28.775
467.142,28.275
467.405,27.789
467.667,27.345
467.929,26.946
468.191,26.506
468.454,26.096
468.716,25.684
468.978,25.269
469.241,24.786
469.503,24.346
469.765,23.945
470.028,23.553
470.290,23.142
470.552,22.735
470.815,22.356
471.077,21.953
471.340,21.540
471.602,21.149
471.865,20.737
472.128,20.351
472.390,19.941
472.653,19.551
472.915,19.141
473.178,18.695
473.441,18.281
473.703,17.860
473.966,17.425
474.229,17.009
474.492,16.583
474.755,16.175
475.017,15.752
475.280,15.368
475.543,14.989
475.806,14.645
476.069,14.243
476.332,13.836
476.595,13.477
476.858,13.124
477.121,12.765
477.384,12.412
477.647,12.090
477.910,11.787
478.173,11.469
478.436,11.175
478.699,10.862
478.962,10.599
479.226,10.327
479.489,10.088
479.752,9.825
480.015,9.592
480.279,9.321
480.542,9.085
480.805,8.841
481.069,8.637
481.332,8.434
481.595,8.248
481.859,8.055
482.122,7.916
482.386,7.701
482.649,7.508
482.913,7.332
483.177,7.174
483.440,6.984
483.704,6.830
483.967,6.668
484.231,6.540
484.495,6.399
484.759,6.264
485.022,6.106
485.286,5.969
485.550,5.818
485.814,5.694
486.078,5.527
486.342,5.420
486.606,5.298
486.869,5.195
487.133,5.065
487.397,4.965
487.662,4.839
487.926,4.724
488.190,4.587
488.454,4.490
488.718,4.368
488.982,4.274
489.246,4.147
489.511,4.058
489.775,3.941
490.039,3.861
490.304,3.777
490.568,3.682
490.832,3.584
491.097,3.507
491.361,3.425
491.626,3.363
491.890,3.278
492.155,3.210
492.419,3.122
492.684,3.070
492.949,2.980
493.213,2.905
493.478,2.848
493.743,2.805
494.008,2.720
494.272,2.654
494.537,2.599
494.802,2.564
495.067,2.527
495.332,2.509
495.597,2.467
495.862,2.432
496.127,2.377
496.392,2.340
496.657,2.295
496.922,2.255
497.187,2.231
497.452,2.210
497.718,2.186
497.983,2.172
498.248,2.143
498.513,2.111
498.779,2.080
499.044,2.076
499.310,2.051
499.575,2.016
499.841,1.991
500.106,1.985
500.372,1.973
500.637,1.938
500.903,1.930
501.168,1.935
501.434,1.910
501.700,1.880
501.966,1.861
502.231,1.858
502.497,1.842
502.763,1.822
503.029,1.796
503.295,1.786
503.561,1.786
503.827,1.771
504.093,1.768
504.359,1.758
504.625,1.745
504.891,1.742
505.157,1.719
505.423,1.714
505.690,1.694
505.956,1.672
506.222,1.676
506.489,1.682
506.755,1.689
507.021,1.683
507.288,1.673
507.554,1.666
507.821,1.651
508.087,1.646
508.354,1.653
508.621,1.666
508.887,1.642
509.154,1.624
509.421,1.623
509.687,1.608
509.954,1.587
510.221,1.582
510.488,1.587
510.755,1.596
511.022,1.596
511.289,1.600
511.556,1.579
511.823,1.572
512.090,1.576
512.357,1.582
512.624,1.569
512.891,1.556
513.159,1.539
513.426,1.524
513.693,1.519
513.960,1.521
514.228,1.511
514.495,1.517
514.763,1.520
515.030,1.516
515.298,1.502
515.565,1.495
515.833,1.503
516.100,1.494
516.368,1.485
516.636,1.484
516.904,1.474
517.171,1.476
517.439,1.478
517.707,1.476
517.975,1.470
518.243,1.473
518.511,1.480
518.779,1.472
519.047,1.455
519.315,1.471
519.583,1.458
519.851,1.434
520.119,1.439
520.387,1.439
520.656,1.433
520.924,1.439
521.192,1.451
521.461,1.448
521.729,1.445
521.997,1.444
522.266,1.436
522.534,1.433
522.803,1.442
523.071,1.446
523.340,1.439
523.609,1.427
523.877,1.413
524.146,1.414
524.415,1.423
524.684,1.434
524.952,1.435
525.221,1.418
525.490,1.417
525.759,1.437
526.028,1.434
526.297,1.422
526.566,1.409
526.835,1.409
527.104,1.404
527.373,1.415
527.642,1.416
527.912,1.404
528.181,1.401
528.450,1.394
528.719,1.393
528.989,1.399
529.258,1.415
529.528,1.417
529.797,1.408
530.067,1.402
530.336,1.405
530.606,1.393
530.875,1.386
531.145,1.379
531.414,1.378
531.684,1.397
531.954,1.401
532.224,1.393
532.493,1.386
532.763,1.365
533.033,1.375
533.303,1.390
533.573,1.396
533.843,1.384
534.113,1.367
534.383,1.370
534.653,1.359
534.923,1.368
535.193,1.380
535.463,1.380
535.733,1.393
536.004,1.401
536.274,1.392
536.544,1.384
536.814,1.375
537.085,1.358
537.355,1.367
537.626,1.383
537.896,1.385
538.166,1.385
538.437,1.386
538.707,1.381
538.978,1.371
539.249,1.372
539.519,1.384
539.790,1.369
540.061,1.349
540.331,1.361
540.602,1.382
540.873,1.382
541.144,1.383
541.414,1.386
541.685,1.376
541.956,1.373
542.227,1.371
542.498,1.376
542.769,1.376
543.040,1.374
543.311,1.374
543.582,1.383
543.853,1.386
544.124,1.385
544.396,1.390
544.667,1.394
544.938,1.400
545.209,1.387
545.480,1.351
545.752,1.364
546.023,1.374
546.294,1.371
546.566,1.355
546.837,1.354
547.109,1.356
547.380,1.364
547.652,1.361
547.923,1.350
548.195,1.347
548.466,1.371
548.738,1.379
549.009,1.386
549.281,1.379
549.553,1.367
549.824,1.356
550.096,1.341
550.368,1.347
550.640,1.356
550.911,1.353
551.183,1.363
551.455,1.385
551.727,1.392
551.999,1.389
552.271,1.373
552.543,1.365
552.815,1.369
553.087,1.361
553.359,1.373
553.631,1.377
553.903,1.368
554.175,1.367
554.447,1.375
554.719,1.376
554.991,1.374
555.263,1.376
555.535,1.373
555.808,1.364
556.080,1.365
556.352,1.360
556.624,1.360
556.897,1.361
557.169,1.354
557.441,1.361
557.714,1.361
557.986,1.355
558.258,1.351
558.531,1.348
558.803,1.361
559.076,1.363
559.348,1.364
559.621,1.357
559.893,1.349
560.166,1.360
560.438,1.351
560.711,1.348
560.983,1.351
561.256,1.351
561.528,1.358
561.801,1.371
562.074,1.374
562.346,1.381
562.619,1.391
562.892,1.386
563.164,1.368
563.437,1.364
563.710,1.373
563.983,1.368
564.255,1.350
564.528,1.343
564.801,1.363
565.074,1.374
565.346,1.373
565.619,1.357
565.892,1.356
566.165,1.363
566.438,1.350
566.711,1.337
566.984,1.342
567.257,1.344
567.529,1.351
567.802,1.367
568.075,1.379
568.348,1.376
568.621,1.362
568.894,1.358
569.167,1.355
569.440,1.354
569.713,1.343
569.986,1.335
570.259,1.351
570.532,1.342
570.805,1.345
571.078,1.358
571.351,1.356
571.625,1.363
571.898,1.369
572.171,1.348
572.444,1.331
572.717,1.339
572.990,1.359
573.263,1.363
573.536,1.338
573.809,1.326
574.083,1.324
574.356,1.336
574.629,1.352
574.902,1.364
575.175,1.352
575.448,1.347
575.721,1.341
575.995,1.344
576.268,1.342
576.541,1.336
576.814,1.351
577.087,1.357
577.361,1.352
577.634,1.355
577.907,1.353
578.180,1.331
578.453,1.322
578.727,1.329
579.000,1.333
579.273,1.337
579.546,1.352
579.820,1.368
580.093,1.373
580.366,1.358
580.639,1.343
580.913,1.333
581.186,1.344
581.459,1.341
581.732,1.343
582.005,1.341
582.279,1.343
582.552,1.329
582.825,1.328
583.098,1.326
583.372,1.332
583.645,1.342
583.918,1.347
584.191,1.348
584.464,1.347
584.738,1.339
585.011,1.338
585.284,1.338
585.557,1.332
585.831,1.334
586.104,1.342
586.377,1.360
586.650,1.382
586.923,1.380
587.196,1.370
587.470,1.370
587.743,1.356
588.016,1.353
588.289,1.345
588.562,1.353
588.835,1.358
589.109,1.348
589.382,1.343
589.655,1.342
589.928,1.343
590.201,1.333
590.474,1.335
590.747,1.348
591.020,1.357
591.293,1.357
591.567,1.352
591.840,1.343
592.113,1.336
592.386,1.336
592.659,1.326
592.932,1.326
593.205,1.335
593.478,1.332
593.751,1.325
594.024,1.320
594.297,1.321
594.570,1.316
594.843,1.327
595.116,1.334
595.389,1.327
595.662,1.324
595.934,1.324
596.207,1.327
596.480,1.337
596.753,1.350
597.026,1.359
597.299,1.349
597.572,1.354
597.844,1.355
598.117,1.345
598.390,1.333
598.663,1.332
598.936,1.324
599.208,1.333
599.481,1.337
599.754,1.342
600.026,1.340
600.299,1.328
600.572,1.331
600.844,1.332
601.117,1.323
601.390,1.314
601.662,1.326
601.935,1.323
602.207,1.321
602.480,1.329
602.752,1.336
603.025,1.322
603.297,1.315
603.570,1.326
603.842,1.333
604.115,1.341
604.387,1.340
604.660,1.344
604.932,1.334
605.204,1.339
605.477,1.352
605.749,1.360
606.021,1.363
606.294,1.365
606.566,1.353
606.838,1.336
607.110,1.344
607.383,1.342
607.655,1.341
607.927,1.346
608.199,1.347
608.471,1.345
608.743,1.341
609.015,1.336
609.287,1.336
609.559,1.339
609.831,1.336
610.103,1.339
610.375,1.340
610.647,1.328
610.919,1.318
611.191,1.314
611.463,1.327
611.735,1.328
612.007,1.321
612.278,1.320
612.550,1.323
612.822,1.324
613.094,1.334
613.365,1.332
613.637,1.332
613.909,1.342
614.180,1.341
614.452,1.339
614.723,1.340
614.995,1.331
615.266,1.322
615.538,1.333
615.809,1.349
616.081,1.349
616.352,1.331
616.623,1.328
616.895,1.328
617.166,1.326
617.437,1.321
617.709,1.329
617.980,1.339
618.251,1.340
618.522,1.340
618.793,1.345
619.065,1.361
619.336,1.377
619.607,1.346
619.878,1.334
620.149,1.345
620.420,1.350
620.691,1.344
620.962,1.342
621.232,1.358
621.503,1.365
621.774,1.347
622.045,1.345
622.316,1.347
622.586,1.351
622.857,1.364
623.128,1.377
623.398,1.359
623.669,1.352
623.940,1.340
624.210,1.321
624.481,1.325
624.751,1.346
625.021,1.335
625.292,1.325
625.562,1.327
625.833,1.328
626.103,1.324
626.373,1.323
626.643,1.318
626.914,1.330
627.184,1.336
627.454,1.336
627.724,1.338
627.994,1.336
628.264,1.336
628.534,1.332
628.804,1.318
629.074,1.319
629.344,1.329
629.614,1.330
629.884,1.331
630.154,1.325
630.424,1.317
630.693,1.302
630.963,1.301
631.233,1.286
631.502,1.279
631.772,1.301
632.041,1.320
632.311,1.324
632.581,1.323
632.850,1.327
633.119,1.317
633.389,1.307
633.658,1.303
633.928,1.304
634.197,1.321
634.466,1.332
634.735,1.339
635.004,1.338
635.274,1.324
635.543,1.330
635.812,1.331
636.081,1.327
636.350,1.320
636.619,1.315
636.888,1.319
637.157,1.328
637.426,1.336
637.694,1.342
637.963,1.336
638.232,1.332
638.501,1.329
638.769,1.323
639.038,1.328
639.307,1.335
639.575,1.339
639.844,1.339
640.112,1.325
640.381,1.322
640.649,1.315
640.917,1.318
641.186,1.320
641.454,1.321
641.722,1.327
641.991,1.327
642.259,1.325
642.527,1.312
642.795,1.317
643.063,1.313
643.331,1.301
643.599,1.309
643.867,1.316
644.135,1.325
644.403,1.324
644.671,1.329
644.939,1.326
645.206,1.335
645.474,1.341
645.742,1.336
646.009,1.324
646.277,1.312
646.545,1.323
646.812,1.334
647.080,1.345
647.347,1.346
647.615,1.338
647.882,1.326
648.149,1.312
648.417,1.313
648.684,1.321
648.951,1.330
649.219,1.338
649.486,1.341
649.753,1.330
650.020,1.322
650.287,1.317
650.554,1.314
650.821,1.310
651.088,1.307
651.355,1.310
651.622,1.325
651.889,1.327
652.155,1.328
652.422,1.325
652.689,1.326
652.956,1.331
653.222,1.328
653.489,1.340
653.755,1.357
654.022,1.340
654.288,1.317
654.555,1.317
654.821,1.323
655.088,1.324
655.354,1.334
655.620,1.342
655.887,1.348
656.153,1.344
656.419,1.343
656.685,1.343
656.951,1.337
657.217,1.339
657.483,1.338
657.749,1.327
658.015,1.328
658.281,1.331
658.547,1.330
658.813,1.319
659.079,1.307
659.345,1.305
659.610,1.298
659.876,1.300
660.142,1.304
660.407,1.307
660.673,1.316
660.939,1.317
661.204,1.319
661.470,1.316
661.735,1.309
662.000,1.313
662.266,1.322
662.531,1.323
662.796,1.329
663.062,1.332
663.327,1.325
663.592,1.319
663.857,1.321
664.122,1.319
664.388,1.312
664.653,1.316
664.918,1.318
665.183,1.315
665.448,1.312
665.712,1.317
665.977,1.324
666.242,1.337
666.507,1.330
666.772,1.303
667.037,1.300
667.301,1.310
667.566,1.312
667.831,1.320
668.095,1.325
668.360,1.324
668.624,1.328
668.889,1.324
669.153,1.331
669.418,1.320
669.682,1.323
669.946,1.326
670.211,1.331
670.475,1.338
670.739,1.340
671.004,1.342
671.268,1.360
671.532,1.394
671.796,1.397
672.060,1.345
672.324,1.350
672.588,1.352
672.852,1.356
673.116,1.378
673.380,1.430
673.644,1.417
673.908,1.334
674.172,1.326
674.436,1.331
674.700,1.333
674.963,1.328
675.227,1.333
675.491,1.333
675.754,1.330
676.018,1.327
676.282,1.325
676.545,1.332
676.809,1.326
677.072,1.322
677.336,1.313
677.599,1.312
677.863,1.319
678.126,1.314
678.389,1.321
678.653,1.338
678.916,1.327
679.179,1.322
679.442,1.315
679.706,1.321
679.969,1.323
680.232,1.318
680.495,1.322
680.758,1.340
681.021,1.340
681.284,1.325
681.547,1.313
681.810,1.313
682.073,1.329
682.336,1.344
682.599,1.331
682.862,1.323
683.125,1.321
683.388,1.327
683.651,1.333
683.913,1.334
684.176,1.326
684.439,1.315
684.702,1.307
684.964,1.298
685.227,1.302
685.490,1.317
685.752,1.327
686.015,1.341
686.277,1.331
686.540,1.322
686.802,1.312
687.065,1.307
687.327,1.314
687.590,1.320
687.852,1.314
688.115,1.299
688.377,1.293
688.639,1.301
688.902,1.307
689.164,1.312
689.426,1.320
689.689,1.327
689.951,1.319
690.213,1.314
690.475,1.318
690.737,1.313
691.000,1.312
691.262,1.310
691.524,1.317
691.786,1.330
692.048,1.338
692.310,1.329
692.572,1.309
692.834,1.301
693.096,1.299
693.358,1.311
693.620,1.329
693.882,1.337
694.144,1.334
694.406,1.325
694.668,1.311
694.930,1.312
695.192,1.300
695.453,1.300
695.715,1.315
695.977,1.319
696.239,1.314
696.501,1.313
696.762,1.322
697.024,1.324
697.286,1.316
697.548,1.304
697.809,1.314
698.071,1.312
698.333,1.304
698.594,1.306
698.856,1.310
699.118,1.318
699.379,1.315
699.641,1.314
699.902,1.326
700.164,1.331
700.426,1.324
700.687,1.321
700.949,1.321
701.210,1.315
701.472,1.315
701.733,1.310
701.995,1.314
702.256,1.318
702.518,1.313
702.779,1.303
703.041,1.309
703.302,1.329
703.563,1.325
703.825,1.305
704.086,1.299
704.348,1.303
704.609,1.304
704.871,1.312
705.132,1.332
705.393,1.331
705.655,1.314
705.916,1.317
706.177,1.315
706.439,1.310
706.700,1.316
706.961,1.316
707.223,1.312
707.484,1.313
707.745,1.286
708.007,1.283
708.268,1.280
708.529,1.262
708.790,1.254
709.052,1.245
709.313,1.246
709.574,1.268
709.835,1.267
710.097,1.269
710.358,1.257
710.619,1.245
710.881,1.232
711.142,1.229
711.403,1.227
711.664,1.226
711.926,1.231
712.187,1.224
712.448,1.233
712.709,1.243
712.970,1.246
713.232,1.251
713.493,1.260
713.754,1.257
714.015,1.246
714.277,1.253
714.538,1.264
714.799,1.276
715.060,1.285
715.322,1.281
715.583,1.272
715.844,1.272
716.105,1.262
716.367,1.254
716.628,1.257
716.889,1.263
717.150,1.262
717.411,1.246
717.673,1.235
717.934,1.244
718.195,1.247
718.457,1.251
718.718,1.238
718.979,1.234
719.240,1.241
719.502,1.254
719.763,1.261
720.024,1.263
720.286,1.264
720.547,1.260
720.808,1.254
721.069,1.248
721.331,1.255
721.592,1.261
721.853,1.267
722.115,1.257
722.376,1.260
722.638,1.263
722.899,1.256
723.160,1.254
723.422,1.243
723.683,1.232
723.944,1.238
724.206,1.246
724.467,1.242
724.729,1.240
724.990,1.243
725.252,1.247
725.513,1.243
725.775,1.230
726.036,1.226
726.298,1.235
726.559,1.239
726.821,1.246
727.082,1.246
727.344,1.243
727.605,1.238
727.867,1.234
728.128,1.229
728.390,1.236
728.652,1.241
728.913,1.249
729.175,1.266
729.436,1.257
729.698,1.254
729.960,1.261
730.221,1.251
730.483,1.244
730.745,1.231
731.007,1.238
731.268,1.241
731.530,1.239
731.792,1.242
732.054,1.245
732.315,1.248
732.577,1.252
732.839,1.245
733.101,1.235
733.363,1.237
733.625,1.235
733.887,1.239
734.149,1.244
734.411,1.243
734.673,1.247
734.935,1.251
735.197,1.248
735.459,1.246
735.721,1.256
735.983,1.254
736.245,1.246
736.507,1.246
736.769,1.252
737.031,1.248
737.293,1.241
737.555,1.231
737.818,1.226
738.080,1.230
738.342,1.234
738.604,1.241
738.867,1.245
739.129,1.241
739.391,1.234
739.654,1.224
739.916,1.222
740.178,1.231
740.441,1.239
740.703,1.247
740.966,1.238
741.228,1.239
741.491,1.243
741.753,1.232
742.016,1.233
742.278,1.230
742.541,1.235
742.804,1.243
743.066,1.242
743.329,1.251
743.592,1.254
743.854,1.241
744.117,1.252
744.380,1.259
744.643,1.257
744.905,1.253
745.168,1.258
745.431,1.253
745.694,1.239
745.957,1.230
746.220,1.232
746.483,1.224
746.746,1.229
747.009,1.240
747.272,1.255
747.535,1.270
