Wavelength (nm),Intensity B1.2,,C:/Users/Brend/Desktop/LED Spectras v2/Blinds/-Interference/Spectrometer Data (Newer).sp,,,B1.2,
379.792,1.531,,2018-07-02 14:46:27,,Integration Time,100 ms,
380.000,1.522,,Analyze Light,,Number of Scans to Average,25,
380.209,1.512,,,,Smoothing,0,
380.418,1.515
380.627,1.532
380.837,1.546
381.048,1.565
381.259,1.563
381.471,1.557
381.683,1.555
381.896,1.560
382.110,1.554
382.324,1.563
382.538,1.573
382.753,1.586
382.969,1.583
383.185,1.572
383.402,1.578
383.619,1.583
383.837,1.588
384.055,1.598
384.274,1.613
384.493,1.621
384.712,1.613
384.932,1.615
385.153,1.629
385.374,1.629
385.596,1.641
385.818,1.652
386.040,1.661
386.263,1.669
386.487,1.668
386.710,1.664
386.935,1.659
387.159,1.654
387.385,1.658
387.610,1.651
387.836,1.659
388.063,1.675
388.289,1.675
388.517,1.677
388.744,1.674
388.972,1.673
389.201,1.689
389.430,1.688
389.659,1.701
389.889,1.713
390.119,1.729
390.349,1.732
390.580,1.733
390.811,1.730
391.042,1.726
391.274,1.730
391.507,1.742
391.739,1.740
391.972,1.733
392.205,1.736
392.439,1.747
392.673,1.760
392.907,1.758
393.142,1.758
393.377,1.775
393.612,1.775
393.848,1.780
394.084,1.779
394.320,1.789
394.557,1.792
394.794,1.809
395.031,1.812
395.269,1.815
395.507,1.814
395.745,1.816
395.983,1.820
396.222,1.836
396.461,1.847
396.700,1.865
396.940,1.878
397.180,1.874
397.420,1.876
397.660,1.873
397.901,1.873
398.142,1.876
398.383,1.886
398.625,1.875
398.866,1.879
399.108,1.905
399.351,1.918
399.593,1.933
399.836,1.919
400.079,1.917
400.322,1.910
400.566,1.910
400.809,1.905
401.053,1.921
401.298,1.933
401.542,1.929
401.787,1.944
402.031,1.951
402.277,1.947
402.522,1.952
402.767,1.955
403.013,1.962
403.259,1.965
403.505,1.969
403.752,1.970
403.998,1.971
404.245,1.984
404.492,1.996
404.739,1.999
404.986,2.002
405.234,2.010
405.482,2.011
405.730,2.006
405.978,2.014
406.226,2.029
406.475,2.018
406.723,2.014
406.972,2.031
407.221,2.046
407.470,2.044
407.720,2.040
407.969,2.039
408.219,2.037
408.469,2.067
408.719,2.075
408.969,2.062
409.219,2.065
409.470,2.089
409.720,2.090
409.971,2.098
410.222,2.109
410.473,2.115
410.724,2.110
410.976,2.106
411.227,2.111
411.479,2.136
411.731,2.130
411.983,2.133
412.235,2.139
412.487,2.146
412.740,2.145
412.992,2.158
413.245,2.160
413.497,2.167
413.750,2.170
414.003,2.171
414.257,2.161
414.510,2.166
414.763,2.171
415.017,2.180
415.270,2.187
415.524,2.194
415.778,2.182
416.032,2.183
416.286,2.199
416.540,2.220
416.794,2.217
417.049,2.212
417.303,2.209
417.558,2.223
417.812,2.239
418.067,2.244
418.322,2.252
418.577,2.256
418.832,2.244
419.088,2.242
419.343,2.240
419.598,2.242
419.854,2.227
420.109,2.231
420.365,2.238
420.621,2.251
420.876,2.247
421.132,2.259
421.388,2.259
421.645,2.278
421.901,2.281
422.157,2.283
422.413,2.276
422.670,2.282
422.926,2.284
423.183,2.284
423.439,2.278
423.696,2.301
423.953,2.303
424.210,2.330
424.467,2.345
424.724,2.332
424.981,2.328
425.238,2.315
425.495,2.320
425.753,2.353
426.010,2.369
426.267,2.382
426.525,2.388
426.782,2.422
427.040,2.428
427.298,2.441
427.555,2.466
427.813,2.502
428.071,2.507
428.329,2.532
428.587,2.552
428.845,2.577
429.103,2.611
429.361,2.645
429.619,2.673
429.878,2.704
430.136,2.732
430.394,2.787
430.653,2.831
430.911,2.894
431.170,2.951
431.428,3.011
431.687,3.064
431.946,3.137
432.204,3.188
432.463,3.262
432.722,3.349
432.981,3.433
433.240,3.509
433.499,3.619
433.758,3.709
434.017,3.821
434.276,3.898
434.535,4.008
434.794,4.114
435.053,4.255
435.312,4.381
435.572,4.511
435.831,4.649
436.090,4.836
436.350,5.002
436.609,5.169
436.869,5.325
437.128,5.507
437.388,5.690
437.647,5.881
437.907,6.074
438.166,6.330
438.426,6.531
438.686,6.757
438.946,6.984
439.205,7.239
439.465,7.485
439.725,7.771
439.985,8.048
440.245,8.343
440.505,8.614
440.765,8.913
441.025,9.211
441.285,9.558
441.545,9.895
441.805,10.231
442.065,10.567
442.325,10.946
442.585,11.298
442.846,11.693
443.106,12.092
443.366,12.554
443.626,12.969
443.887,13.408
444.147,13.876
444.407,14.359
444.668,14.822
444.928,15.345
445.189,15.872
445.449,16.438
445.710,16.995
445.970,17.602
446.231,18.227
446.491,18.907
446.752,19.572
447.012,20.265
447.273,21.008
447.534,21.768
447.794,22.557
448.055,23.354
448.316,24.189
448.577,25.150
448.837,26.099
449.098,27.127
449.359,28.192
449.620,29.250
449.881,30.340
450.142,31.475
450.403,32.623
450.664,33.873
450.924,35.218
451.185,36.587
451.446,37.976
451.707,39.414
451.969,40.874
452.230,42.402
452.491,43.906
452.752,45.447
453.013,46.992
453.274,48.550
453.535,50.137
453.796,51.691
454.058,53.181
454.319,54.701
454.580,56.203
454.841,57.606
455.103,59.011
455.364,60.381
455.625,61.678
455.887,62.925
456.148,64.085
456.409,65.154
456.671,66.125
456.932,66.963
457.194,67.699
457.455,68.283
457.716,68.755
457.978,69.126
458.239,69.439
458.501,69.624
458.763,69.674
459.024,69.583
459.286,69.336
459.547,68.983
459.809,68.479
460.071,67.839
460.332,67.066
460.594,66.286
460.856,65.375
461.117,64.443
461.379,63.412
461.641,62.353
461.903,61.247
462.164,60.047
462.426,58.799
462.688,57.552
462.950,56.278
463.212,54.997
463.474,53.703
463.736,52.396
463.998,51.091
464.260,49.866
464.522,48.658
464.784,47.546
465.046,46.466
465.308,45.429
465.570,44.421
465.832,43.457
466.094,42.579
466.356,41.714
466.618,40.914
466.880,40.095
467.142,39.335
467.405,38.563
467.667,37.877
467.929,37.214
468.191,36.593
468.454,35.985
468.716,35.368
468.978,34.809
469.241,34.208
469.503,33.625
469.765,33.105
470.028,32.601
470.290,32.110
470.552,31.633
470.815,31.153
471.077,30.663
471.340,30.188
471.602,29.701
471.865,29.221
472.128,28.767
472.390,28.293
472.653,27.824
472.915,27.353
473.178,26.874
473.441,26.379
473.703,25.893
473.966,25.364
474.229,24.821
474.492,24.319
474.755,23.817
475.017,23.262
475.280,22.776
475.543,22.307
475.806,21.808
476.069,21.252
476.332,20.737
476.595,20.191
476.858,19.695
477.121,19.167
477.384,18.625
477.647,18.129
477.910,17.693
478.173,17.241
478.436,16.779
478.699,16.326
478.962,15.910
479.226,15.469
479.489,15.087
479.752,14.681
480.015,14.302
480.279,13.884
480.542,13.513
480.805,13.167
481.069,12.842
481.332,12.480
481.595,12.153
481.859,11.841
482.122,11.586
482.386,11.301
482.649,11.033
482.913,10.737
483.177,10.493
483.440,10.238
483.704,9.997
483.967,9.767
484.231,9.577
484.495,9.325
484.759,9.106
485.022,8.893
485.286,8.687
485.550,8.478
485.814,8.285
486.078,8.074
486.342,7.908
486.606,7.699
486.869,7.544
487.133,7.375
487.397,7.235
487.662,7.076
487.926,6.925
488.190,6.751
488.454,6.596
488.718,6.410
488.982,6.266
489.246,6.078
489.511,5.950
489.775,5.809
490.039,5.664
490.304,5.508
490.568,5.367
490.832,5.223
491.097,5.108
491.361,4.977
491.626,4.851
491.890,4.723
492.155,4.592
492.419,4.454
492.684,4.350
492.949,4.217
493.213,4.108
493.478,4.007
493.743,3.914
494.008,3.786
494.272,3.689
494.537,3.591
494.802,3.506
495.067,3.422
495.332,3.358
495.597,3.269
495.862,3.197
496.127,3.109
496.392,3.025
496.657,2.945
496.922,2.863
497.187,2.792
497.452,2.741
497.718,2.685
497.983,2.656
498.248,2.596
498.513,2.544
498.779,2.481
499.044,2.458
499.310,2.412
499.575,2.345
499.841,2.292
500.106,2.260
500.372,2.227
500.637,2.184
500.903,2.161
501.168,2.155
501.434,2.112
501.700,2.077
501.966,2.028
502.231,2.015
502.497,1.990
502.763,1.957
503.029,1.914
503.295,1.897
503.561,1.880
503.827,1.858
504.093,1.849
504.359,1.846
504.625,1.822
504.891,1.813
505.157,1.780
505.423,1.763
505.690,1.725
505.956,1.698
506.222,1.691
506.489,1.694
506.755,1.706
507.021,1.704
507.288,1.687
507.554,1.674
507.821,1.646
508.087,1.633
508.354,1.627
508.621,1.628
508.887,1.604
509.154,1.588
509.421,1.584
509.687,1.574
509.954,1.546
510.221,1.540
510.488,1.535
510.755,1.534
511.022,1.526
511.289,1.514
511.556,1.491
511.823,1.485
512.090,1.481
512.357,1.490
512.624,1.479
512.891,1.466
513.159,1.451
513.426,1.437
513.693,1.437
513.960,1.426
514.228,1.421
514.495,1.425
514.763,1.427
515.030,1.423
515.298,1.412
515.565,1.400
515.833,1.406
516.100,1.399
516.368,1.391
516.636,1.391
516.904,1.389
517.171,1.382
517.439,1.374
517.707,1.380
517.975,1.369
518.243,1.370
518.511,1.368
518.779,1.353
519.047,1.339
519.315,1.359
519.583,1.351
519.851,1.326
520.119,1.319
520.387,1.321
520.656,1.320
520.924,1.322
521.192,1.329
521.461,1.324
521.729,1.326
521.997,1.328
522.266,1.320
522.534,1.320
522.803,1.320
523.071,1.314
523.340,1.309
523.609,1.292
523.877,1.281
524.146,1.280
524.415,1.284
524.684,1.292
524.952,1.291
525.221,1.281
525.490,1.285
525.759,1.303
526.028,1.303
526.297,1.292
526.566,1.284
526.835,1.286
527.104,1.282
527.373,1.286
527.642,1.283
527.912,1.272
528.181,1.261
528.450,1.267
528.719,1.272
528.989,1.281
529.258,1.288
529.528,1.282
529.797,1.265
530.067,1.262
530.336,1.268
530.606,1.261
530.875,1.253
531.145,1.247
531.414,1.242
531.684,1.261
531.954,1.269
532.224,1.260
532.493,1.249
532.763,1.237
533.033,1.237
533.303,1.247
533.573,1.245
533.843,1.248
534.113,1.237
534.383,1.235
534.653,1.238
534.923,1.247
535.193,1.245
535.463,1.245
535.733,1.250
536.004,1.254
536.274,1.257
536.544,1.253
536.814,1.241
537.085,1.233
537.355,1.233
537.626,1.245
537.896,1.247
538.166,1.250
538.437,1.248
538.707,1.241
538.978,1.228
539.249,1.232
539.519,1.241
539.790,1.229
540.061,1.223
540.331,1.222
540.602,1.225
540.873,1.228
541.144,1.229
541.414,1.230
541.685,1.228
541.956,1.231
542.227,1.231
542.498,1.230
542.769,1.222
543.040,1.225
543.311,1.239
543.582,1.243
543.853,1.245
544.124,1.239
544.396,1.240
544.667,1.239
544.938,1.231
545.209,1.218
545.480,1.203
545.752,1.211
546.023,1.222
546.294,1.225
546.566,1.219
546.837,1.215
547.109,1.205
547.380,1.210
547.652,1.212
547.923,1.211
548.195,1.215
548.466,1.233
548.738,1.238
549.009,1.237
549.281,1.220
549.553,1.220
549.824,1.214
550.096,1.208
550.368,1.209
550.640,1.211
550.911,1.223
551.183,1.234
551.455,1.242
551.727,1.242
551.999,1.238
552.271,1.220
552.543,1.213
552.815,1.213
553.087,1.210
553.359,1.227
553.631,1.224
553.903,1.218
554.175,1.227
554.447,1.235
554.719,1.242
554.991,1.241
555.263,1.233
555.535,1.227
555.808,1.222
556.080,1.219
556.352,1.211
556.624,1.212
556.897,1.214
557.169,1.213
557.441,1.213
557.714,1.208
557.986,1.207
558.258,1.211
558.531,1.208
558.803,1.215
559.076,1.213
559.348,1.214
559.621,1.207
559.893,1.215
560.166,1.219
560.438,1.205
560.711,1.202
560.983,1.202
561.256,1.205
561.528,1.210
561.801,1.214
562.074,1.219
562.346,1.220
562.619,1.227
562.892,1.227
563.164,1.217
563.437,1.217
563.710,1.214
563.983,1.200
564.255,1.192
564.528,1.190
564.801,1.209
565.074,1.214
565.346,1.212
565.619,1.197
565.892,1.209
566.165,1.215
566.438,1.205
566.711,1.191
566.984,1.199
567.257,1.205
567.529,1.205
567.802,1.211
568.075,1.222
568.348,1.221
568.621,1.209
568.894,1.210
569.167,1.207
569.440,1.212
569.713,1.207
569.986,1.193
570.259,1.195
570.532,1.191
570.805,1.197
571.078,1.193
571.351,1.195
571.625,1.199
571.898,1.194
572.171,1.185
572.444,1.189
572.717,1.198
572.990,1.210
573.263,1.218
573.536,1.207
573.809,1.195
574.083,1.181
574.356,1.178
574.629,1.194
574.902,1.210
575.175,1.203
575.448,1.192
575.721,1.182
575.995,1.188
576.268,1.192
576.541,1.191
576.814,1.194
577.087,1.198
577.361,1.205
577.634,1.202
577.907,1.204
578.180,1.192
578.453,1.193
578.727,1.201
579.000,1.194
579.273,1.185
579.546,1.192
579.820,1.201
580.093,1.207
580.366,1.203
580.639,1.194
580.913,1.194
581.186,1.192
581.459,1.188
581.732,1.190
582.005,1.185
582.279,1.183
582.552,1.174
582.825,1.187
583.098,1.193
583.372,1.190
583.645,1.195
583.918,1.197
584.191,1.191
584.464,1.192
584.738,1.183
585.011,1.185
585.284,1.190
585.557,1.184
585.831,1.184
586.104,1.195
586.377,1.210
586.650,1.221
586.923,1.220
587.196,1.213
587.470,1.203
587.743,1.200
588.016,1.197
588.289,1.189
588.562,1.195
588.835,1.204
589.109,1.193
589.382,1.184
589.655,1.189
589.928,1.187
590.201,1.184
590.474,1.191
590.747,1.202
591.020,1.209
591.293,1.210
591.567,1.202
591.840,1.200
592.113,1.192
592.386,1.191
592.659,1.179
592.932,1.172
593.205,1.184
593.478,1.183
593.751,1.179
594.024,1.177
594.297,1.173
594.570,1.168
594.843,1.173
595.116,1.185
595.389,1.191
595.662,1.195
595.934,1.192
596.207,1.193
596.480,1.202
596.753,1.205
597.026,1.204
597.299,1.199
597.572,1.204
597.844,1.204
598.117,1.189
598.390,1.180
598.663,1.180
598.936,1.175
599.208,1.180
599.481,1.188
599.754,1.190
600.026,1.190
600.299,1.171
600.572,1.169
600.844,1.171
601.117,1.161
601.390,1.156
601.662,1.167
601.935,1.172
602.207,1.168
602.480,1.177
602.752,1.178
603.025,1.166
603.297,1.162
603.570,1.169
603.842,1.182
604.115,1.194
604.387,1.197
604.660,1.187
604.932,1.178
605.204,1.184
605.477,1.195
605.749,1.198
606.021,1.202
606.294,1.208
606.566,1.185
606.838,1.179
607.110,1.185
607.383,1.189
607.655,1.184
607.927,1.187
608.199,1.193
608.471,1.192
608.743,1.188
609.015,1.177
609.287,1.168
609.559,1.175
609.831,1.183
610.103,1.181
610.375,1.178
610.647,1.166
610.919,1.168
611.191,1.177
611.463,1.180
611.735,1.183
612.007,1.178
612.278,1.174
612.550,1.173
612.822,1.171
613.094,1.177
613.365,1.180
613.637,1.180
613.909,1.194
614.180,1.193
614.452,1.191
614.723,1.193
614.995,1.183
615.266,1.174
615.538,1.175
615.809,1.185
616.081,1.182
616.352,1.178
616.623,1.173
616.895,1.174
617.166,1.164
617.437,1.163
617.709,1.167
617.980,1.167
618.251,1.170
618.522,1.184
618.793,1.198
619.065,1.208
619.336,1.211
619.607,1.191
619.878,1.182
620.149,1.199
620.420,1.202
620.691,1.195
620.962,1.193
621.232,1.197
621.503,1.193
621.774,1.182
622.045,1.183
622.316,1.183
622.586,1.194
622.857,1.204
623.128,1.201
623.398,1.193
623.669,1.193
623.940,1.188
624.210,1.171
624.481,1.173
624.751,1.183
625.021,1.174
625.292,1.168
625.562,1.177
625.833,1.178
626.103,1.167
626.373,1.163
626.643,1.161
626.914,1.175
627.184,1.179
627.454,1.171
627.724,1.164
627.994,1.163
628.264,1.177
628.534,1.183
628.804,1.173
629.074,1.174
629.344,1.182
629.614,1.175
629.884,1.167
630.154,1.157
630.424,1.156
630.693,1.149
630.963,1.141
631.233,1.134
631.502,1.138
631.772,1.150
632.041,1.166
632.311,1.171
632.581,1.173
632.850,1.177
633.119,1.168
633.389,1.152
633.658,1.147
633.928,1.148
634.197,1.163
634.466,1.177
634.735,1.183
635.004,1.183
635.274,1.174
635.543,1.171
635.812,1.171
636.081,1.169
636.350,1.168
636.619,1.172
636.888,1.169
637.157,1.171
637.426,1.175
637.694,1.184
637.963,1.180
638.232,1.177
638.501,1.168
638.769,1.162
639.038,1.168
639.307,1.175
639.575,1.181
639.844,1.182
640.112,1.164
640.381,1.160
640.649,1.159
640.917,1.168
641.186,1.163
641.454,1.154
641.722,1.163
641.991,1.171
642.259,1.163
642.527,1.158
642.795,1.163
643.063,1.157
643.331,1.143
643.599,1.147
643.867,1.154
644.135,1.162
644.403,1.173
644.671,1.170
644.939,1.158
645.206,1.170
645.474,1.168
645.742,1.166
646.009,1.148
646.277,1.147
646.545,1.162
646.812,1.179
647.080,1.192
647.347,1.198
647.615,1.188
647.882,1.181
648.149,1.170
648.417,1.164
648.684,1.159
648.951,1.159
649.219,1.169
649.486,1.163
649.753,1.159
650.020,1.160
650.287,1.157
650.554,1.156
650.821,1.153
651.088,1.144
651.355,1.149
651.622,1.159
651.889,1.161
652.155,1.162
652.422,1.162
652.689,1.169
652.956,1.171
653.222,1.164
653.489,1.179
653.755,1.198
654.022,1.193
654.288,1.178
654.555,1.168
654.821,1.168
655.088,1.181
655.354,1.191
655.620,1.187
655.887,1.183
656.153,1.183
656.419,1.184
656.685,1.182
656.951,1.183
657.217,1.178
657.483,1.170
657.749,1.169
658.015,1.169
658.281,1.171
658.547,1.167
658.813,1.151
659.079,1.141
659.345,1.140
659.610,1.142
659.876,1.149
660.142,1.153
660.407,1.161
660.673,1.169
660.939,1.175
661.204,1.174
661.470,1.166
661.735,1.163
662.000,1.166
662.266,1.173
662.531,1.169
662.796,1.161
663.062,1.159
663.327,1.149
663.592,1.149
663.857,1.153
664.122,1.148
664.388,1.150
664.653,1.152
664.918,1.162
665.183,1.166
665.448,1.159
665.712,1.169
665.977,1.173
666.242,1.177
666.507,1.167
666.772,1.148
667.037,1.156
667.301,1.164
667.566,1.166
667.831,1.168
668.095,1.163
668.360,1.161
668.624,1.158
668.889,1.156
669.153,1.164
669.418,1.156
669.682,1.161
669.946,1.164
670.211,1.172
670.475,1.177
670.739,1.172
671.004,1.185
671.268,1.202
671.532,1.221
671.796,1.215
672.060,1.181
672.324,1.190
672.588,1.188
672.852,1.187
673.116,1.210
673.380,1.251
673.644,1.234
673.908,1.169
674.172,1.162
674.436,1.164
674.700,1.171
674.963,1.175
675.227,1.175
675.491,1.173
675.754,1.166
676.018,1.164
676.282,1.161
676.545,1.157
676.809,1.153
677.072,1.144
677.336,1.138
677.599,1.140
677.863,1.144
678.126,1.140
678.389,1.156
678.653,1.174
678.916,1.174
679.179,1.166
679.442,1.154
679.706,1.158
679.969,1.162
680.232,1.158
680.495,1.163
680.758,1.177
681.021,1.178
681.284,1.164
681.547,1.148
681.810,1.151
682.073,1.162
682.336,1.171
682.599,1.167
682.862,1.158
683.125,1.159
683.388,1.163
683.651,1.171
683.913,1.172
684.176,1.171
684.439,1.160
684.702,1.147
684.964,1.142
685.227,1.152
685.490,1.163
685.752,1.178
686.015,1.184
686.277,1.171
686.540,1.164
686.802,1.163
687.065,1.160
687.327,1.163
687.590,1.166
687.852,1.163
688.115,1.151
688.377,1.147
688.639,1.158
688.902,1.158
689.164,1.158
689.426,1.172
689.689,1.183
689.951,1.174
690.213,1.170
690.475,1.168
690.737,1.161
691.000,1.157
691.262,1.154
691.524,1.158
691.786,1.164
692.048,1.178
692.310,1.172
692.572,1.154
692.834,1.143
693.096,1.144
693.358,1.147
693.620,1.159
693.882,1.170
694.144,1.170
694.406,1.164
694.668,1.159
694.930,1.157
695.192,1.157
695.453,1.159
695.715,1.159
695.977,1.156
696.239,1.143
696.501,1.146
696.762,1.162
697.024,1.168
697.286,1.162
697.548,1.158
697.809,1.152
698.071,1.152
698.333,1.148
698.594,1.152
698.856,1.152
699.118,1.164
699.379,1.166
699.641,1.166
699.902,1.179
700.164,1.172
700.426,1.160
700.687,1.156
700.949,1.153
701.210,1.156
701.472,1.149
701.733,1.146
701.995,1.143
702.256,1.148
702.518,1.138
702.779,1.134
703.041,1.147
703.302,1.175
703.563,1.171
703.825,1.153
704.086,1.158
704.348,1.159
704.609,1.157
704.871,1.163
705.132,1.172
705.393,1.160
705.655,1.141
705.916,1.156
706.177,1.159
706.439,1.151
706.700,1.154
706.961,1.151
707.223,1.146
707.484,1.137
707.745,1.116
708.007,1.118
708.268,1.119
708.529,1.110
708.790,1.097
709.052,1.083
709.313,1.077
709.574,1.088
709.835,1.089
710.097,1.087
710.358,1.077
710.619,1.073
710.881,1.066
711.142,1.064
711.403,1.060
711.664,1.058
711.926,1.059
712.187,1.057
712.448,1.074
712.709,1.079
712.970,1.074
713.232,1.078
713.493,1.077
713.754,1.079
714.015,1.084
714.277,1.086
714.538,1.087
714.799,1.096
715.060,1.102
715.322,1.099
715.583,1.097
715.844,1.089
716.105,1.081
716.367,1.072
716.628,1.076
716.889,1.079
717.150,1.068
717.411,1.061
717.673,1.063
717.934,1.076
718.195,1.078
718.457,1.070
718.718,1.057
718.979,1.051
719.240,1.052
719.502,1.064
719.763,1.074
720.024,1.077
720.286,1.081
720.547,1.079
720.808,1.069
721.069,1.071
721.331,1.074
721.592,1.082
721.853,1.086
722.115,1.073
722.376,1.073
722.638,1.076
722.899,1.070
723.160,1.070
723.422,1.070
723.683,1.064
723.944,1.071
724.206,1.079
724.467,1.069
724.729,1.071
724.990,1.076
725.252,1.086
725.513,1.077
725.775,1.056
726.036,1.052
726.298,1.061
726.559,1.061
726.821,1.069
727.082,1.073
727.344,1.062
727.605,1.064
727.867,1.061
728.128,1.061
728.390,1.064
728.652,1.066
728.913,1.074
729.175,1.086
729.436,1.077
729.698,1.074
729.960,1.076
730.221,1.071
730.483,1.069
730.745,1.071
731.007,1.080
731.268,1.079
731.530,1.079
731.792,1.074
732.054,1.079
732.315,1.080
732.577,1.073
732.839,1.068
733.101,1.063
733.363,1.061
733.625,1.059
733.887,1.057
734.149,1.061
734.411,1.064
734.673,1.071
734.935,1.077
735.197,1.067
735.459,1.069
735.721,1.078
735.983,1.073
736.245,1.059
736.507,1.057
736.769,1.069
737.031,1.072
737.293,1.072
737.555,1.060
737.818,1.058
738.080,1.064
738.342,1.061
738.604,1.061
738.867,1.057
739.129,1.051
739.391,1.055
739.654,1.050
739.916,1.051
740.178,1.055
740.441,1.071
740.703,1.074
740.966,1.072
741.228,1.067
741.491,1.067
741.753,1.059
742.016,1.059
742.278,1.057
742.541,1.062
742.804,1.070
743.066,1.071
743.329,1.072
743.592,1.072
743.854,1.071
744.117,1.073
744.380,1.072
744.643,1.064
744.905,1.063
745.168,1.064
745.431,1.064
745.694,1.059
745.957,1.053
746.220,1.056
746.483,1.056
746.746,1.061
747.009,1.064
747.272,1.079
