Wavelength (nm),Intensity B5.3,,C:/Users/Brend/Desktop/LED Spectras v2/Blinds/-Interference/Spectrometer Data (Newer).sp,,,B5.3,
379.792,1.584,,2018-07-02 14:45:13,,Integration Time,100 ms,
380.000,1.569,,Analyze Light,,Number of Scans to Average,25,
380.209,1.562,,,,Smoothing,0,
380.418,1.574
380.627,1.590
380.837,1.600
381.048,1.608
381.259,1.609
381.471,1.600
381.683,1.604
381.896,1.610
382.110,1.616
382.324,1.628
382.538,1.644
382.753,1.645
382.969,1.636
383.185,1.619
383.402,1.620
383.619,1.628
383.837,1.634
384.055,1.650
384.274,1.671
384.493,1.677
384.712,1.677
384.932,1.673
385.153,1.685
385.374,1.687
385.596,1.700
385.818,1.710
386.040,1.728
386.263,1.730
386.487,1.732
386.710,1.730
386.935,1.723
387.159,1.709
387.385,1.715
387.610,1.717
387.836,1.719
388.063,1.730
388.289,1.736
388.517,1.742
388.744,1.744
388.972,1.737
389.201,1.747
389.430,1.745
389.659,1.747
389.889,1.751
390.119,1.760
390.349,1.762
390.580,1.777
390.811,1.789
391.042,1.783
391.274,1.782
391.507,1.791
391.739,1.792
391.972,1.781
392.205,1.785
392.439,1.799
392.673,1.813
392.907,1.823
393.142,1.827
393.377,1.833
393.612,1.834
393.848,1.843
394.084,1.849
394.320,1.859
394.557,1.864
394.794,1.872
395.031,1.867
395.269,1.879
395.507,1.887
395.745,1.887
395.983,1.883
396.222,1.899
396.461,1.908
396.700,1.924
396.940,1.940
397.180,1.932
397.420,1.935
397.660,1.933
397.901,1.927
398.142,1.928
398.383,1.948
398.625,1.935
398.866,1.931
399.108,1.960
399.351,1.975
399.593,1.992
399.836,1.970
400.079,1.964
400.322,1.955
400.566,1.959
400.809,1.958
401.053,1.962
401.298,1.967
401.542,1.969
401.787,1.979
402.031,1.998
402.277,2.008
402.522,2.023
402.767,2.025
403.013,2.019
403.259,1.999
403.505,2.015
403.752,2.015
403.998,2.016
404.245,2.025
404.492,2.056
404.739,2.058
404.986,2.057
405.234,2.057
405.482,2.058
405.730,2.053
405.978,2.059
406.226,2.064
406.475,2.058
406.723,2.059
406.972,2.073
407.221,2.090
407.470,2.103
407.720,2.099
407.969,2.097
408.219,2.088
408.469,2.102
408.719,2.110
408.969,2.116
409.219,2.113
409.470,2.120
409.720,2.121
409.971,2.132
410.222,2.148
410.473,2.164
410.724,2.155
410.976,2.158
411.227,2.168
411.479,2.172
411.731,2.170
411.983,2.182
412.235,2.178
412.487,2.169
412.740,2.168
412.992,2.185
413.245,2.187
413.497,2.189
413.750,2.193
414.003,2.192
414.257,2.184
414.510,2.192
414.763,2.196
415.017,2.211
415.270,2.212
415.524,2.217
415.778,2.218
416.032,2.215
416.286,2.215
416.540,2.230
416.794,2.220
417.049,2.227
417.303,2.217
417.558,2.223
417.812,2.232
418.067,2.239
418.322,2.241
418.577,2.251
418.832,2.246
419.088,2.233
419.343,2.218
419.598,2.234
419.854,2.219
420.109,2.232
420.365,2.245
420.621,2.253
420.876,2.249
421.132,2.257
421.388,2.259
421.645,2.256
421.901,2.257
422.157,2.263
422.413,2.260
422.670,2.262
422.926,2.257
423.183,2.265
423.439,2.267
423.696,2.289
423.953,2.297
424.210,2.326
424.467,2.345
424.724,2.334
424.981,2.327
425.238,2.329
425.495,2.340
425.753,2.368
426.010,2.379
426.267,2.391
426.525,2.403
426.782,2.439
427.040,2.453
427.298,2.487
427.555,2.524
427.813,2.565
428.071,2.577
428.329,2.612
428.587,2.641
428.845,2.675
429.103,2.721
429.361,2.777
429.619,2.807
429.878,2.855
430.136,2.899
430.394,2.966
430.653,3.015
430.911,3.118
431.170,3.200
431.428,3.268
431.687,3.330
431.946,3.422
432.204,3.506
432.463,3.605
432.722,3.713
432.981,3.810
433.240,3.907
433.499,4.052
433.758,4.186
434.017,4.320
434.276,4.438
434.535,4.589
434.794,4.747
435.053,4.916
435.312,5.076
435.572,5.247
435.831,5.414
436.090,5.618
436.350,5.819
436.609,6.056
436.869,6.292
437.128,6.535
437.388,6.740
437.647,6.992
437.907,7.239
438.166,7.516
438.426,7.764
438.686,8.064
438.946,8.354
439.205,8.665
439.465,8.980
439.725,9.334
439.985,9.691
440.245,10.047
440.505,10.381
440.765,10.770
441.025,11.168
441.285,11.569
441.545,11.955
441.805,12.388
442.065,12.841
442.325,13.312
442.585,13.791
442.846,14.351
443.106,14.879
443.366,15.458
443.626,16.067
443.887,16.645
444.147,17.288
444.407,17.937
444.668,18.600
444.928,19.346
445.189,20.086
445.449,20.882
445.710,21.683
445.970,22.565
446.231,23.494
446.491,24.462
446.752,25.487
447.012,26.529
447.273,27.585
447.534,28.701
447.794,29.861
448.055,31.046
448.316,32.313
448.577,33.679
448.837,35.076
449.098,36.541
449.359,38.050
449.620,39.547
449.881,41.064
450.142,42.597
450.403,44.146
450.664,45.808
450.924,47.517
451.185,49.240
451.446,50.956
451.707,52.728
451.969,54.413
452.230,56.124
452.491,57.816
452.752,59.473
453.013,61.070
453.274,62.651
453.535,64.153
453.796,65.579
454.058,66.894
454.319,68.146
454.580,69.312
454.841,70.341
455.103,71.256
455.364,72.055
455.625,72.706
455.887,73.285
456.148,73.733
456.409,73.980
456.671,74.126
456.932,74.113
457.194,73.912
457.455,73.626
457.716,73.178
457.978,72.606
458.239,71.928
458.501,71.119
458.763,70.240
459.024,69.257
459.286,68.091
459.547,66.842
459.809,65.572
460.071,64.155
460.332,62.712
460.594,61.250
460.856,59.750
461.117,58.256
461.379,56.729
461.641,55.207
461.903,53.686
462.164,52.142
462.426,50.656
462.688,49.211
462.950,47.773
463.212,46.395
463.474,45.110
463.736,43.859
463.998,42.657
464.260,41.535
464.522,40.475
464.784,39.492
465.046,38.560
465.308,37.687
465.570,36.861
465.832,36.121
466.094,35.355
466.356,34.667
466.618,33.959
466.880,33.319
467.142,32.727
467.405,32.178
467.667,31.661
467.929,31.172
468.191,30.676
468.454,30.177
468.716,29.677
468.978,29.191
469.241,28.692
469.503,28.204
469.765,27.719
470.028,27.273
470.290,26.835
470.552,26.356
470.815,25.921
471.077,25.474
471.340,24.970
471.602,24.499
471.865,24.020
472.128,23.536
472.390,23.043
472.653,22.582
472.915,22.100
473.178,21.578
473.441,21.083
473.703,20.563
473.966,20.016
474.229,19.516
474.492,19.005
474.755,18.480
475.017,17.936
475.280,17.479
475.543,16.962
475.806,16.501
476.069,16.032
476.332,15.546
476.595,15.065
476.858,14.633
477.121,14.182
477.384,13.731
477.647,13.328
477.910,12.944
478.173,12.574
478.436,12.199
478.699,11.829
478.962,11.512
479.226,11.194
479.489,10.870
479.752,10.560
480.015,10.282
480.279,9.995
480.542,9.749
480.805,9.478
481.069,9.226
481.332,8.989
481.595,8.779
481.859,8.557
482.122,8.405
482.386,8.179
482.649,7.957
482.913,7.729
483.177,7.548
483.440,7.342
483.704,7.178
483.967,7.039
484.231,6.920
484.495,6.751
484.759,6.610
485.022,6.452
485.286,6.300
485.550,6.126
485.814,5.968
486.078,5.800
486.342,5.667
486.606,5.529
486.869,5.412
487.133,5.286
487.397,5.181
487.662,5.054
487.926,4.950
488.190,4.801
488.454,4.687
488.718,4.537
488.982,4.424
489.246,4.294
489.511,4.189
489.775,4.063
490.039,3.946
490.304,3.847
490.568,3.745
490.832,3.632
491.097,3.564
491.361,3.468
491.626,3.379
491.890,3.277
492.155,3.198
492.419,3.114
492.684,3.039
492.949,2.951
493.213,2.875
493.478,2.814
493.743,2.762
494.008,2.669
494.272,2.589
494.537,2.531
494.802,2.496
495.067,2.446
495.332,2.414
495.597,2.367
495.862,2.337
496.127,2.281
496.392,2.245
496.657,2.203
496.922,2.159
497.187,2.126
497.452,2.100
497.718,2.064
497.983,2.059
498.248,2.031
498.513,2.000
498.779,1.968
499.044,1.965
499.310,1.935
499.575,1.893
499.841,1.874
500.106,1.862
500.372,1.836
500.637,1.810
500.903,1.813
501.168,1.813
501.434,1.792
501.700,1.770
501.966,1.745
502.231,1.731
502.497,1.712
502.763,1.697
503.029,1.681
503.295,1.670
503.561,1.663
503.827,1.658
504.093,1.650
504.359,1.638
504.625,1.626
504.891,1.621
505.157,1.602
505.423,1.603
505.690,1.583
505.956,1.561
506.222,1.543
506.489,1.541
506.755,1.554
507.021,1.551
507.288,1.537
507.554,1.532
507.821,1.518
508.087,1.513
508.354,1.505
508.621,1.514
508.887,1.497
509.154,1.480
509.421,1.473
509.687,1.462
509.954,1.447
510.221,1.447
510.488,1.443
510.755,1.447
511.022,1.449
511.289,1.444
511.556,1.429
511.823,1.417
512.090,1.415
512.357,1.426
512.624,1.417
512.891,1.415
513.159,1.407
513.426,1.397
513.693,1.389
513.960,1.389
514.228,1.395
514.495,1.398
514.763,1.399
515.030,1.391
515.298,1.379
515.565,1.366
515.833,1.371
516.100,1.367
516.368,1.360
516.636,1.357
516.904,1.351
517.171,1.358
517.439,1.348
517.707,1.344
517.975,1.339
518.243,1.341
518.511,1.345
518.779,1.333
519.047,1.320
519.315,1.337
519.583,1.337
519.851,1.323
520.119,1.320
520.387,1.320
520.656,1.316
520.924,1.322
521.192,1.324
521.461,1.323
521.729,1.323
521.997,1.326
522.266,1.326
522.534,1.322
522.803,1.317
523.071,1.316
523.340,1.312
523.609,1.296
523.877,1.289
524.146,1.292
524.415,1.294
524.684,1.298
524.952,1.302
525.221,1.289
525.490,1.286
525.759,1.296
526.028,1.297
526.297,1.287
526.566,1.283
526.835,1.291
527.104,1.294
527.373,1.301
527.642,1.295
527.912,1.287
528.181,1.283
528.450,1.279
528.719,1.279
528.989,1.281
529.258,1.299
529.528,1.306
529.797,1.294
530.067,1.286
530.336,1.287
530.606,1.275
530.875,1.262
531.145,1.256
531.414,1.262
531.684,1.282
531.954,1.287
532.224,1.278
532.493,1.263
532.763,1.251
533.033,1.252
533.303,1.265
533.573,1.271
533.843,1.269
534.113,1.250
534.383,1.251
534.653,1.246
534.923,1.249
535.193,1.264
535.463,1.271
535.733,1.282
536.004,1.287
536.274,1.281
536.544,1.276
536.814,1.266
537.085,1.247
537.355,1.252
537.626,1.269
537.896,1.276
538.166,1.268
538.437,1.262
538.707,1.253
538.978,1.249
539.249,1.259
539.519,1.260
539.790,1.242
540.061,1.234
540.331,1.247
540.602,1.258
540.873,1.265
541.144,1.266
541.414,1.267
541.685,1.264
541.956,1.260
542.227,1.255
542.498,1.247
542.769,1.241
543.040,1.236
543.311,1.240
543.582,1.248
543.853,1.258
544.124,1.260
544.396,1.268
544.667,1.270
544.938,1.265
545.209,1.251
545.480,1.229
545.752,1.245
546.023,1.249
546.294,1.246
546.566,1.242
546.837,1.233
547.109,1.226
547.380,1.232
547.652,1.233
547.923,1.235
548.195,1.241
548.466,1.254
548.738,1.260
549.009,1.262
549.281,1.255
549.553,1.244
549.824,1.238
550.096,1.235
550.368,1.240
550.640,1.241
550.911,1.243
551.183,1.249
551.455,1.271
551.727,1.281
551.999,1.272
552.271,1.257
552.543,1.247
552.815,1.255
553.087,1.252
553.359,1.269
553.631,1.272
553.903,1.263
554.175,1.259
554.447,1.274
554.719,1.276
554.991,1.263
555.263,1.257
555.535,1.243
555.808,1.241
556.080,1.247
556.352,1.246
556.624,1.250
556.897,1.251
557.169,1.239
557.441,1.239
557.714,1.241
557.986,1.235
558.258,1.239
558.531,1.227
558.803,1.234
559.076,1.242
559.348,1.237
559.621,1.235
559.893,1.245
560.166,1.251
560.438,1.242
560.711,1.236
560.983,1.229
561.256,1.226
561.528,1.235
561.801,1.240
562.074,1.248
562.346,1.253
562.619,1.261
562.892,1.264
563.164,1.252
563.437,1.245
563.710,1.255
563.983,1.248
564.255,1.236
564.528,1.234
564.801,1.254
565.074,1.255
565.346,1.242
565.619,1.231
565.892,1.241
566.165,1.245
566.438,1.237
566.711,1.222
566.984,1.222
567.257,1.221
567.529,1.227
567.802,1.239
568.075,1.253
568.348,1.250
568.621,1.245
568.894,1.247
569.167,1.243
569.440,1.248
569.713,1.239
569.986,1.222
570.259,1.221
570.532,1.223
570.805,1.230
571.078,1.234
571.351,1.230
571.625,1.231
571.898,1.234
572.171,1.224
572.444,1.215
572.717,1.219
572.990,1.237
573.263,1.236
573.536,1.223
573.809,1.210
574.083,1.201
574.356,1.215
574.629,1.234
574.902,1.242
575.175,1.236
575.448,1.222
575.721,1.205
575.995,1.201
576.268,1.210
576.541,1.215
576.814,1.233
577.087,1.241
577.361,1.242
577.634,1.236
577.907,1.226
578.180,1.206
578.453,1.206
578.727,1.220
579.000,1.220
579.273,1.223
579.546,1.237
579.820,1.242
580.093,1.248
580.366,1.237
580.639,1.222
580.913,1.207
581.186,1.218
581.459,1.218
581.732,1.215
582.005,1.207
582.279,1.203
582.552,1.203
582.825,1.217
583.098,1.218
583.372,1.216
583.645,1.216
583.918,1.214
584.191,1.221
584.464,1.226
584.738,1.222
585.011,1.221
585.284,1.230
585.557,1.220
585.831,1.214
586.104,1.227
586.377,1.239
586.650,1.252
586.923,1.243
587.196,1.235
587.470,1.232
587.743,1.220
588.016,1.222
588.289,1.225
588.562,1.230
588.835,1.238
589.109,1.231
589.382,1.220
589.655,1.219
589.928,1.221
590.201,1.215
590.474,1.218
590.747,1.229
591.020,1.237
591.293,1.232
591.567,1.232
591.840,1.222
592.113,1.216
592.386,1.212
592.659,1.201
592.932,1.203
593.205,1.213
593.478,1.221
593.751,1.216
594.024,1.214
594.297,1.215
594.570,1.200
594.843,1.200
595.116,1.210
595.389,1.211
595.662,1.210
595.934,1.211
596.207,1.215
596.480,1.214
596.753,1.216
597.026,1.219
597.299,1.220
597.572,1.221
597.844,1.226
598.117,1.218
598.390,1.200
598.663,1.205
598.936,1.217
599.208,1.223
599.481,1.217
599.754,1.221
600.026,1.217
600.299,1.200
600.572,1.198
600.844,1.205
601.117,1.200
601.390,1.195
601.662,1.200
601.935,1.195
602.207,1.190
602.480,1.202
602.752,1.203
603.025,1.186
603.297,1.186
603.570,1.198
603.842,1.210
604.115,1.219
604.387,1.214
604.660,1.214
604.932,1.211
605.204,1.216
605.477,1.230
605.749,1.232
606.021,1.233
606.294,1.235
606.566,1.227
606.838,1.212
607.110,1.209
607.383,1.217
607.655,1.217
607.927,1.217
608.199,1.222
608.471,1.219
608.743,1.214
609.015,1.205
609.287,1.201
609.559,1.200
609.831,1.205
610.103,1.213
610.375,1.212
610.647,1.205
610.919,1.200
611.191,1.202
611.463,1.204
611.735,1.201
612.007,1.196
612.278,1.190
612.550,1.206
612.822,1.215
613.094,1.222
613.365,1.222
613.637,1.209
613.909,1.212
614.180,1.213
614.452,1.214
614.723,1.217
614.995,1.210
615.266,1.205
615.538,1.211
615.809,1.215
616.081,1.212
616.352,1.208
616.623,1.209
616.895,1.200
617.166,1.202
617.437,1.202
617.709,1.211
617.980,1.222
618.251,1.226
618.522,1.231
618.793,1.233
619.065,1.240
619.336,1.240
619.607,1.212
619.878,1.209
620.149,1.217
620.420,1.219
620.691,1.210
620.962,1.208
621.232,1.227
621.503,1.223
621.774,1.208
622.045,1.211
622.316,1.211
622.586,1.221
622.857,1.230
623.128,1.233
623.398,1.222
623.669,1.215
623.940,1.209
624.210,1.195
624.481,1.207
624.751,1.225
625.021,1.214
625.292,1.204
625.562,1.206
625.833,1.211
626.103,1.206
626.373,1.202
626.643,1.195
626.914,1.201
627.184,1.207
627.454,1.210
627.724,1.213
627.994,1.211
628.264,1.209
628.534,1.209
628.804,1.199
629.074,1.198
629.344,1.204
629.614,1.200
629.884,1.196
630.154,1.196
630.424,1.188
630.693,1.184
630.963,1.178
631.233,1.172
631.502,1.169
631.772,1.181
632.041,1.192
632.311,1.200
632.581,1.201
632.850,1.200
633.119,1.195
633.389,1.183
633.658,1.175
633.928,1.180
634.197,1.201
634.466,1.209
634.735,1.211
635.004,1.218
635.274,1.202
635.543,1.197
635.812,1.194
636.081,1.192
636.350,1.197
636.619,1.198
636.888,1.199
637.157,1.194
637.426,1.198
637.694,1.212
637.963,1.206
638.232,1.212
638.501,1.210
638.769,1.202
639.038,1.212
639.307,1.214
639.575,1.216
639.844,1.215
640.112,1.202
640.381,1.194
640.649,1.185
640.917,1.195
641.186,1.201
641.454,1.198
641.722,1.205
641.991,1.200
642.259,1.190
642.527,1.186
642.795,1.198
643.063,1.196
643.331,1.184
643.599,1.192
643.867,1.202
644.135,1.209
644.403,1.208
644.671,1.213
644.939,1.204
645.206,1.213
645.474,1.214
645.742,1.212
646.009,1.200
646.277,1.193
646.545,1.198
646.812,1.204
647.080,1.214
647.347,1.216
647.615,1.215
647.882,1.202
648.149,1.189
648.417,1.187
648.684,1.191
648.951,1.198
649.219,1.205
649.486,1.201
649.753,1.194
650.020,1.188
650.287,1.183
650.554,1.184
650.821,1.189
651.088,1.187
651.355,1.187
651.622,1.194
651.889,1.190
652.155,1.193
652.422,1.187
652.689,1.195
652.956,1.200
653.222,1.196
653.489,1.212
653.755,1.233
654.022,1.226
654.288,1.207
654.555,1.201
654.821,1.200
655.088,1.206
655.354,1.212
655.620,1.210
655.887,1.217
656.153,1.218
656.419,1.219
656.685,1.212
656.951,1.201
657.217,1.195
657.483,1.194
657.749,1.195
658.015,1.193
658.281,1.198
658.547,1.197
658.813,1.191
659.079,1.193
659.345,1.186
659.610,1.182
659.876,1.186
660.142,1.190
660.407,1.193
660.673,1.194
660.939,1.199
661.204,1.202
661.470,1.198
661.735,1.189
662.000,1.197
662.266,1.202
662.531,1.190
662.796,1.189
663.062,1.189
663.327,1.190
663.592,1.189
663.857,1.199
664.122,1.193
664.388,1.193
664.653,1.196
664.918,1.201
665.183,1.203
665.448,1.195
665.712,1.197
665.977,1.196
666.242,1.207
666.507,1.198
666.772,1.168
667.037,1.168
667.301,1.175
667.566,1.182
667.831,1.191
668.095,1.197
668.360,1.189
668.624,1.180
668.889,1.180
669.153,1.189
669.418,1.186
669.682,1.179
669.946,1.188
670.211,1.196
670.475,1.207
670.739,1.208
671.004,1.208
671.268,1.221
671.532,1.255
671.796,1.254
672.060,1.217
672.324,1.221
672.588,1.226
672.852,1.228
673.116,1.241
673.380,1.280
673.644,1.268
673.908,1.202
674.172,1.193
674.436,1.200
674.700,1.205
674.963,1.204
675.227,1.212
675.491,1.205
675.754,1.194
676.018,1.195
676.282,1.197
676.545,1.198
676.809,1.187
677.072,1.177
677.336,1.177
677.599,1.180
677.863,1.182
678.126,1.180
678.389,1.187
678.653,1.202
678.916,1.209
679.179,1.196
679.442,1.186
679.706,1.193
679.969,1.195
680.232,1.194
680.495,1.203
680.758,1.218
681.021,1.212
681.284,1.193
681.547,1.185
681.810,1.188
682.073,1.200
682.336,1.208
682.599,1.206
682.862,1.198
683.125,1.199
683.388,1.202
683.651,1.208
683.913,1.202
684.176,1.195
684.439,1.186
684.702,1.178
684.964,1.174
685.227,1.178
685.490,1.187
685.752,1.201
686.015,1.207
686.277,1.199
686.540,1.190
686.802,1.185
687.065,1.182
687.327,1.191
687.590,1.196
687.852,1.191
688.115,1.184
688.377,1.182
688.639,1.182
688.902,1.184
689.164,1.189
689.426,1.196
689.689,1.210
689.951,1.204
690.213,1.193
690.475,1.194
690.737,1.191
691.000,1.180
691.262,1.179
691.524,1.184
691.786,1.195
692.048,1.203
692.310,1.204
692.572,1.187
692.834,1.174
693.096,1.175
693.358,1.185
693.620,1.189
693.882,1.196
694.144,1.200
694.406,1.198
694.668,1.193
694.930,1.183
695.192,1.172
695.453,1.176
695.715,1.189
695.977,1.192
696.239,1.191
696.501,1.188
696.762,1.191
697.024,1.201
697.286,1.195
697.548,1.182
697.809,1.179
698.071,1.179
698.333,1.185
698.594,1.189
698.856,1.188
699.118,1.196
699.379,1.198
699.641,1.197
699.902,1.206
700.164,1.204
700.426,1.199
700.687,1.189
700.949,1.182
701.210,1.186
701.472,1.183
701.733,1.176
701.995,1.171
702.256,1.180
702.518,1.184
702.779,1.182
703.041,1.182
703.302,1.198
703.563,1.192
703.825,1.179
704.086,1.178
704.348,1.177
704.609,1.179
704.871,1.188
705.132,1.200
705.393,1.192
705.655,1.178
705.916,1.181
706.177,1.188
706.439,1.185
706.700,1.185
706.961,1.179
707.223,1.181
707.484,1.174
707.745,1.139
708.007,1.141
708.268,1.148
708.529,1.132
708.790,1.119
709.052,1.112
709.313,1.108
709.574,1.120
709.835,1.132
710.097,1.130
710.358,1.117
710.619,1.109
710.881,1.105
711.142,1.097
711.403,1.093
711.664,1.086
711.926,1.082
712.187,1.081
712.448,1.094
712.709,1.102
712.970,1.102
713.232,1.105
713.493,1.109
713.754,1.116
714.015,1.112
714.277,1.116
714.538,1.118
714.799,1.121
715.060,1.132
715.322,1.124
715.583,1.124
715.844,1.119
716.105,1.110
716.367,1.103
716.628,1.100
716.889,1.098
717.150,1.093
717.411,1.090
717.673,1.086
717.934,1.097
718.195,1.103
718.457,1.099
718.718,1.088
718.979,1.088
719.240,1.093
719.502,1.103
719.763,1.116
720.024,1.120
720.286,1.117
720.547,1.105
720.808,1.091
721.069,1.095
721.331,1.103
721.592,1.112
721.853,1.111
722.115,1.109
722.376,1.114
722.638,1.117
722.899,1.107
723.160,1.101
723.422,1.094
723.683,1.092
723.944,1.097
724.206,1.109
724.467,1.099
724.729,1.102
724.990,1.102
725.252,1.100
725.513,1.099
725.775,1.080
726.036,1.078
726.298,1.086
726.559,1.085
726.821,1.091
727.082,1.094
727.344,1.099
727.605,1.097
727.867,1.099
728.128,1.099
728.390,1.100
728.652,1.101
728.913,1.111
729.175,1.117
729.436,1.107
729.698,1.110
729.960,1.114
730.221,1.101
730.483,1.089
730.745,1.083
731.007,1.088
731.268,1.085
731.530,1.083
731.792,1.089
732.054,1.096
732.315,1.104
732.577,1.108
732.839,1.105
733.101,1.096
733.363,1.090
733.625,1.092
733.887,1.091
734.149,1.093
734.411,1.092
734.673,1.103
734.935,1.105
735.197,1.098
735.459,1.097
735.721,1.107
735.983,1.102
736.245,1.090
736.507,1.086
736.769,1.105
737.031,1.111
737.293,1.107
737.555,1.094
737.818,1.086
738.080,1.090
738.342,1.086
738.604,1.083
738.867,1.085
739.129,1.086
739.391,1.083
739.654,1.082
739.916,1.088
740.178,1.089
740.441,1.097
740.703,1.098
740.966,1.090
741.228,1.084
741.491,1.083
741.753,1.083
742.016,1.092
742.278,1.092
742.541,1.088
742.804,1.093
743.066,1.100
743.329,1.106
743.592,1.102
743.854,1.098
744.117,1.103
744.380,1.111
744.643,1.106
744.905,1.101
745.168,1.097
745.431,1.091
745.694,1.084
745.957,1.087
746.220,1.090
746.483,1.087
746.746,1.089
747.009,1.094
747.272,1.111
