Wavelength (nm),Intensity B6.1,,C:/Users/Brend/Desktop/LED Spectras v2/Blinds/-Interference/Spectrometer Data (Newer).sp,,,B6.1,
379.792,1.541,,2018-07-02 14:45:07,,Integration Time,100 ms,
380.000,1.530,,Analyze Light,,Number of Scans to Average,25,
380.209,1.524,,,,Smoothing,0,
380.418,1.545
380.627,1.567
380.837,1.571
381.048,1.578
381.259,1.574
381.471,1.572
381.683,1.580
381.896,1.576
382.110,1.572
382.324,1.573
382.538,1.594
382.753,1.611
382.969,1.603
383.185,1.582
383.402,1.583
383.619,1.591
383.837,1.603
384.055,1.611
384.274,1.627
384.493,1.631
384.712,1.622
384.932,1.625
385.153,1.627
385.374,1.631
385.596,1.628
385.818,1.624
386.040,1.647
386.263,1.659
386.487,1.662
386.710,1.656
386.935,1.647
387.159,1.637
387.385,1.643
387.610,1.652
387.836,1.651
388.063,1.654
388.289,1.665
388.517,1.671
388.744,1.674
388.972,1.675
389.201,1.686
389.430,1.682
389.659,1.682
389.889,1.685
390.119,1.698
390.349,1.698
390.580,1.704
390.811,1.704
391.042,1.702
391.274,1.706
391.507,1.712
391.739,1.711
391.972,1.706
392.205,1.717
392.439,1.727
392.673,1.730
392.907,1.734
393.142,1.729
393.377,1.736
393.612,1.745
393.848,1.752
394.084,1.748
394.320,1.758
394.557,1.764
394.794,1.775
395.031,1.778
395.269,1.788
395.507,1.792
395.745,1.796
395.983,1.794
396.222,1.797
396.461,1.807
396.700,1.818
396.940,1.822
397.180,1.815
397.420,1.808
397.660,1.806
397.901,1.799
398.142,1.793
398.383,1.798
398.625,1.792
398.866,1.792
399.108,1.817
399.351,1.838
399.593,1.855
399.836,1.834
400.079,1.827
400.322,1.833
400.566,1.833
400.809,1.833
401.053,1.836
401.298,1.846
401.542,1.847
401.787,1.856
402.031,1.866
402.277,1.870
402.522,1.889
402.767,1.890
403.013,1.891
403.259,1.878
403.505,1.875
403.752,1.870
403.998,1.869
404.245,1.874
404.492,1.891
404.739,1.906
404.986,1.905
405.234,1.910
405.482,1.913
405.730,1.904
405.978,1.906
406.226,1.921
406.475,1.915
406.723,1.908
406.972,1.919
407.221,1.924
407.470,1.930
407.720,1.925
407.969,1.929
408.219,1.923
408.469,1.938
408.719,1.949
408.969,1.938
409.219,1.935
409.470,1.945
409.720,1.944
409.971,1.964
410.222,1.976
410.473,1.982
410.724,1.980
410.976,1.984
411.227,1.990
411.479,2.001
411.731,1.998
411.983,1.998
412.235,1.998
412.487,2.002
412.740,2.005
412.992,2.011
413.245,2.008
413.497,2.010
413.750,2.006
414.003,2.006
414.257,1.989
414.510,1.984
414.763,1.998
415.017,2.008
415.270,2.012
415.524,2.021
415.778,2.015
416.032,2.021
416.286,2.025
416.540,2.027
416.794,2.024
417.049,2.029
417.303,2.026
417.558,2.037
417.812,2.048
418.067,2.044
418.322,2.045
418.577,2.048
418.832,2.042
419.088,2.031
419.343,2.030
419.598,2.039
419.854,2.027
420.109,2.036
420.365,2.036
420.621,2.044
420.876,2.047
421.132,2.057
421.388,2.050
421.645,2.041
421.901,2.041
422.157,2.055
422.413,2.052
422.670,2.051
422.926,2.063
423.183,2.060
423.439,2.059
423.696,2.087
423.953,2.096
424.210,2.116
424.467,2.128
424.724,2.123
424.981,2.119
425.238,2.110
425.495,2.118
425.753,2.140
426.010,2.146
426.267,2.152
426.525,2.167
426.782,2.199
427.040,2.200
427.298,2.228
427.555,2.270
427.813,2.287
428.071,2.307
428.329,2.334
428.587,2.359
428.845,2.387
429.103,2.419
429.361,2.454
429.619,2.488
429.878,2.511
430.136,2.543
430.394,2.587
430.653,2.621
430.911,2.693
431.170,2.767
431.428,2.824
431.687,2.869
431.946,2.934
432.204,2.989
432.463,3.064
432.722,3.169
432.981,3.252
433.240,3.328
433.499,3.447
433.758,3.540
434.017,3.653
434.276,3.744
434.535,3.861
434.794,3.963
435.053,4.087
435.312,4.219
435.572,4.371
435.831,4.503
436.090,4.678
436.350,4.840
436.609,5.017
436.869,5.188
437.128,5.376
437.388,5.554
437.647,5.755
437.907,5.951
438.166,6.175
438.426,6.392
438.686,6.617
438.946,6.848
439.205,7.104
439.465,7.357
439.725,7.639
439.985,7.934
440.245,8.230
440.505,8.514
440.765,8.821
441.025,9.121
441.285,9.484
441.545,9.811
441.805,10.168
442.065,10.538
442.325,10.949
442.585,11.339
442.846,11.787
443.106,12.221
443.366,12.754
443.626,13.245
443.887,13.752
444.147,14.323
444.407,14.885
444.668,15.451
444.928,16.096
445.189,16.720
445.449,17.447
445.710,18.166
445.970,18.922
446.231,19.694
446.491,20.559
446.752,21.420
447.012,22.322
447.273,23.225
447.534,24.219
447.794,25.248
448.055,26.265
448.316,27.293
448.577,28.417
448.837,29.573
449.098,30.805
449.359,32.029
449.620,33.263
449.881,34.519
450.142,35.759
450.403,37.020
450.664,38.354
450.924,39.719
451.185,41.076
451.446,42.402
451.707,43.737
451.969,45.052
452.230,46.434
452.491,47.758
452.752,49.012
453.013,50.206
453.274,51.363
453.535,52.459
453.796,53.526
454.058,54.496
454.319,55.457
454.580,56.317
454.841,57.044
455.103,57.710
455.364,58.279
455.625,58.728
455.887,59.133
456.148,59.434
456.409,59.637
456.671,59.780
456.932,59.802
457.194,59.649
457.455,59.368
457.716,59.010
457.978,58.608
458.239,58.127
458.501,57.520
458.763,56.866
459.024,56.116
459.286,55.339
459.547,54.446
459.809,53.549
460.071,52.504
460.332,51.419
460.594,50.376
460.856,49.302
461.117,48.217
461.379,47.177
461.641,46.089
461.903,44.982
462.164,43.945
462.426,42.876
462.688,41.819
462.950,40.831
463.212,39.853
463.474,38.872
463.736,37.927
463.998,36.964
464.260,36.124
464.522,35.316
464.784,34.583
465.046,33.866
465.308,33.187
465.570,32.543
465.832,31.940
466.094,31.350
466.356,30.768
466.618,30.235
466.880,29.664
467.142,29.116
467.405,28.651
467.667,28.173
467.929,27.715
468.191,27.303
468.454,26.880
468.716,26.411
468.978,25.947
469.241,25.478
469.503,25.007
469.765,24.569
470.028,24.191
470.290,23.781
470.552,23.336
470.815,22.915
471.077,22.531
471.340,22.097
471.602,21.651
471.865,21.240
472.128,20.841
472.390,20.445
472.653,20.027
472.915,19.615
473.178,19.200
473.441,18.781
473.703,18.332
473.966,17.880
474.229,17.449
474.492,16.980
474.755,16.553
475.017,16.126
475.280,15.751
475.543,15.336
475.806,14.962
476.069,14.554
476.332,14.148
476.595,13.752
476.858,13.403
477.121,13.040
477.384,12.673
477.647,12.319
477.910,11.996
478.173,11.656
478.436,11.348
478.699,11.006
478.962,10.717
479.226,10.445
479.489,10.218
479.752,9.953
480.015,9.706
480.279,9.449
480.542,9.185
480.805,8.939
481.069,8.718
481.332,8.486
481.595,8.289
481.859,8.089
482.122,7.939
482.386,7.723
482.649,7.540
482.913,7.367
483.177,7.188
483.440,6.999
483.704,6.833
483.967,6.671
484.231,6.539
484.495,6.396
484.759,6.249
485.022,6.091
485.286,5.950
485.550,5.802
485.814,5.665
486.078,5.496
486.342,5.376
486.606,5.249
486.869,5.145
487.133,5.025
487.397,4.928
487.662,4.817
487.926,4.708
488.190,4.574
488.454,4.490
488.718,4.353
488.982,4.249
489.246,4.130
489.511,4.038
489.775,3.916
490.039,3.816
490.304,3.726
490.568,3.643
490.832,3.538
491.097,3.462
491.361,3.384
491.626,3.316
491.890,3.219
492.155,3.144
492.419,3.041
492.684,2.991
492.949,2.907
493.213,2.836
493.478,2.781
493.743,2.720
494.008,2.647
494.272,2.589
494.537,2.540
494.802,2.502
495.067,2.463
495.332,2.430
495.597,2.385
495.862,2.358
496.127,2.302
496.392,2.280
496.657,2.234
496.922,2.181
497.187,2.142
497.452,2.121
497.718,2.095
497.983,2.093
498.248,2.073
498.513,2.042
498.779,2.010
499.044,1.998
499.310,1.971
499.575,1.933
499.841,1.905
500.106,1.905
500.372,1.880
500.637,1.845
500.903,1.839
501.168,1.837
501.434,1.815
501.700,1.800
501.966,1.774
502.231,1.767
502.497,1.747
502.763,1.729
503.029,1.706
503.295,1.694
503.561,1.689
503.827,1.678
504.093,1.671
504.359,1.663
504.625,1.655
504.891,1.644
505.157,1.626
505.423,1.622
505.690,1.604
505.956,1.594
506.222,1.591
506.489,1.590
506.755,1.610
507.021,1.612
507.288,1.601
507.554,1.580
507.821,1.561
508.087,1.556
508.354,1.551
508.621,1.560
508.887,1.541
509.154,1.527
509.421,1.518
509.687,1.504
509.954,1.489
510.221,1.485
510.488,1.474
510.755,1.482
511.022,1.481
511.289,1.481
511.556,1.463
511.823,1.465
512.090,1.465
512.357,1.475
512.624,1.467
512.891,1.460
513.159,1.446
513.426,1.431
513.693,1.423
513.960,1.423
514.228,1.421
514.495,1.425
514.763,1.425
515.030,1.420
515.298,1.411
515.565,1.400
515.833,1.401
516.100,1.396
516.368,1.390
516.636,1.388
516.904,1.383
517.171,1.385
517.439,1.379
517.707,1.384
517.975,1.386
518.243,1.388
518.511,1.386
518.779,1.376
519.047,1.361
519.315,1.370
519.583,1.371
519.851,1.354
520.119,1.343
520.387,1.343
520.656,1.339
520.924,1.351
521.192,1.355
521.461,1.358
521.729,1.359
521.997,1.365
522.266,1.365
522.534,1.359
522.803,1.352
523.071,1.348
523.340,1.346
523.609,1.336
523.877,1.325
524.146,1.324
524.415,1.333
524.684,1.334
524.952,1.331
525.221,1.321
525.490,1.324
525.759,1.333
526.028,1.331
526.297,1.329
526.566,1.316
526.835,1.321
527.104,1.322
527.373,1.321
527.642,1.320
527.912,1.310
528.181,1.302
528.450,1.303
528.719,1.308
528.989,1.320
529.258,1.333
529.528,1.333
529.797,1.323
530.067,1.322
530.336,1.323
530.606,1.316
530.875,1.309
531.145,1.299
531.414,1.298
531.684,1.308
531.954,1.304
532.224,1.299
532.493,1.289
532.763,1.275
533.033,1.277
533.303,1.290
533.573,1.294
533.843,1.294
534.113,1.284
534.383,1.284
534.653,1.284
534.923,1.284
535.193,1.288
535.463,1.288
535.733,1.299
536.004,1.301
536.274,1.300
536.544,1.302
536.814,1.290
537.085,1.280
537.355,1.274
537.626,1.292
537.896,1.299
538.166,1.305
538.437,1.295
538.707,1.286
538.978,1.279
539.249,1.281
539.519,1.285
539.790,1.274
540.061,1.267
540.331,1.281
540.602,1.286
540.873,1.290
541.144,1.288
541.414,1.283
541.685,1.286
541.956,1.285
542.227,1.288
542.498,1.291
542.769,1.284
543.040,1.283
543.311,1.293
543.582,1.294
543.853,1.298
544.124,1.301
544.396,1.301
544.667,1.295
544.938,1.292
545.209,1.284
545.480,1.267
545.752,1.271
546.023,1.284
546.294,1.289
546.566,1.272
546.837,1.261
547.109,1.259
547.380,1.263
547.652,1.261
547.923,1.253
548.195,1.258
548.466,1.271
548.738,1.289
549.009,1.301
549.281,1.293
549.553,1.278
549.824,1.271
550.096,1.257
550.368,1.262
550.640,1.262
550.911,1.255
551.183,1.265
551.455,1.296
551.727,1.311
551.999,1.299
552.271,1.285
552.543,1.281
552.815,1.280
553.087,1.279
553.359,1.283
553.631,1.285
553.903,1.291
554.175,1.290
554.447,1.298
554.719,1.304
554.991,1.299
555.263,1.294
555.535,1.285
555.808,1.274
556.080,1.273
556.352,1.272
556.624,1.272
556.897,1.274
557.169,1.273
557.441,1.280
557.714,1.271
557.986,1.264
558.258,1.270
558.531,1.259
558.803,1.272
559.076,1.282
559.348,1.274
559.621,1.264
559.893,1.264
560.166,1.273
560.438,1.270
560.711,1.265
560.983,1.260
561.256,1.259
561.528,1.273
561.801,1.286
562.074,1.290
562.346,1.293
562.619,1.301
562.892,1.295
563.164,1.290
563.437,1.286
563.710,1.288
563.983,1.279
564.255,1.262
564.528,1.262
564.801,1.279
565.074,1.285
565.346,1.278
565.619,1.259
565.892,1.267
566.165,1.273
566.438,1.269
566.711,1.261
566.984,1.261
567.257,1.262
567.529,1.263
567.802,1.275
568.075,1.289
568.348,1.282
568.621,1.272
568.894,1.272
569.167,1.267
569.440,1.261
569.713,1.259
569.986,1.247
570.259,1.262
570.532,1.260
570.805,1.264
571.078,1.275
571.351,1.273
571.625,1.271
571.898,1.269
572.171,1.254
572.444,1.249
572.717,1.257
572.990,1.274
573.263,1.281
573.536,1.263
573.809,1.252
574.083,1.238
574.356,1.232
574.629,1.243
574.902,1.261
575.175,1.260
575.448,1.251
575.721,1.242
575.995,1.247
576.268,1.244
576.541,1.249
576.814,1.264
577.087,1.265
577.361,1.267
577.634,1.267
577.907,1.258
578.180,1.237
578.453,1.234
578.727,1.245
579.000,1.254
579.273,1.259
579.546,1.260
579.820,1.273
580.093,1.283
580.366,1.270
580.639,1.258
580.913,1.248
581.186,1.248
581.459,1.243
581.732,1.250
582.005,1.242
582.279,1.244
582.552,1.241
582.825,1.242
583.098,1.252
583.372,1.254
583.645,1.255
583.918,1.248
584.191,1.249
584.464,1.251
584.738,1.244
585.011,1.244
585.284,1.247
585.557,1.241
585.831,1.241
586.104,1.250
586.377,1.265
586.650,1.275
586.923,1.270
587.196,1.269
587.470,1.260
587.743,1.241
588.016,1.242
588.289,1.245
588.562,1.257
588.835,1.268
589.109,1.250
589.382,1.248
589.655,1.251
589.928,1.248
590.201,1.247
590.474,1.250
590.747,1.257
591.020,1.267
591.293,1.269
591.567,1.259
591.840,1.254
592.113,1.245
592.386,1.235
592.659,1.230
592.932,1.235
593.205,1.250
593.478,1.260
593.751,1.253
594.024,1.247
594.297,1.250
594.570,1.242
594.843,1.244
595.116,1.254
595.389,1.252
595.662,1.252
595.934,1.244
596.207,1.240
596.480,1.252
596.753,1.259
597.026,1.270
597.299,1.262
597.572,1.260
597.844,1.260
598.117,1.250
598.390,1.238
598.663,1.238
598.936,1.240
599.208,1.243
599.481,1.247
599.754,1.254
600.026,1.248
600.299,1.225
600.572,1.230
600.844,1.235
601.117,1.230
601.390,1.228
601.662,1.234
601.935,1.227
602.207,1.218
602.480,1.237
602.752,1.237
603.025,1.230
603.297,1.234
603.570,1.239
603.842,1.245
604.115,1.254
604.387,1.248
604.660,1.243
604.932,1.244
605.204,1.247
605.477,1.253
605.749,1.260
606.021,1.257
606.294,1.262
606.566,1.254
606.838,1.242
607.110,1.249
607.383,1.251
607.655,1.251
607.927,1.260
608.199,1.261
608.471,1.257
608.743,1.254
609.015,1.243
609.287,1.240
609.559,1.248
609.831,1.245
610.103,1.242
610.375,1.241
610.647,1.235
610.919,1.229
611.191,1.224
611.463,1.237
611.735,1.241
612.007,1.243
612.278,1.241
612.550,1.234
612.822,1.240
613.094,1.249
613.365,1.250
613.637,1.241
613.909,1.257
614.180,1.252
614.452,1.250
614.723,1.252
614.995,1.244
615.266,1.244
615.538,1.252
615.809,1.254
616.081,1.252
616.352,1.238
616.623,1.240
616.895,1.240
617.166,1.231
617.437,1.224
617.709,1.222
617.980,1.231
618.251,1.235
618.522,1.243
618.793,1.252
619.065,1.268
619.336,1.280
619.607,1.257
619.878,1.247
620.149,1.264
620.420,1.268
620.691,1.260
620.962,1.254
621.232,1.262
621.503,1.269
621.774,1.257
622.045,1.253
622.316,1.259
622.586,1.272
622.857,1.277
623.128,1.277
623.398,1.265
623.669,1.265
623.940,1.258
624.210,1.242
624.481,1.247
624.751,1.257
625.021,1.245
625.292,1.235
625.562,1.239
625.833,1.245
626.103,1.237
626.373,1.233
626.643,1.232
626.914,1.242
627.184,1.241
627.454,1.240
627.724,1.248
627.994,1.253
628.264,1.249
628.534,1.238
628.804,1.228
629.074,1.229
629.344,1.243
629.614,1.248
629.884,1.241
630.154,1.231
630.424,1.222
630.693,1.215
630.963,1.207
631.233,1.208
631.502,1.209
631.772,1.219
632.041,1.231
632.311,1.235
632.581,1.234
632.850,1.239
633.119,1.231
633.389,1.220
633.658,1.218
633.928,1.219
634.197,1.230
634.466,1.241
634.735,1.252
635.004,1.247
635.274,1.231
635.543,1.230
635.812,1.231
636.081,1.237
636.350,1.232
636.619,1.237
636.888,1.244
637.157,1.242
637.426,1.243
637.694,1.241
637.963,1.237
638.232,1.233
638.501,1.229
638.769,1.223
639.038,1.233
639.307,1.243
639.575,1.251
639.844,1.251
640.112,1.237
640.381,1.227
640.649,1.220
640.917,1.231
641.186,1.235
641.454,1.234
641.722,1.239
641.991,1.229
642.259,1.228
642.527,1.223
642.795,1.233
643.063,1.233
643.331,1.219
643.599,1.224
643.867,1.233
644.135,1.239
644.403,1.241
644.671,1.240
644.939,1.232
645.206,1.245
645.474,1.247
645.742,1.234
646.009,1.230
646.277,1.223
646.545,1.229
646.812,1.241
647.080,1.245
647.347,1.241
647.615,1.242
647.882,1.240
648.149,1.222
648.417,1.213
648.684,1.221
648.951,1.234
649.219,1.242
649.486,1.243
649.753,1.238
650.020,1.230
650.287,1.228
650.554,1.224
650.821,1.224
651.088,1.221
651.355,1.223
651.622,1.248
651.889,1.242
652.155,1.240
652.422,1.235
652.689,1.237
652.956,1.248
653.222,1.249
653.489,1.257
653.755,1.273
654.022,1.262
654.288,1.240
654.555,1.230
654.821,1.234
655.088,1.245
655.354,1.247
655.620,1.245
655.887,1.248
656.153,1.250
656.419,1.254
656.685,1.243
656.951,1.242
657.217,1.244
657.483,1.234
657.749,1.224
658.015,1.228
658.281,1.238
658.547,1.235
658.813,1.225
659.079,1.225
659.345,1.229
659.610,1.219
659.876,1.219
660.142,1.223
660.407,1.219
660.673,1.222
660.939,1.225
661.204,1.227
661.470,1.222
661.735,1.211
662.000,1.217
662.266,1.224
662.531,1.218
662.796,1.223
663.062,1.222
663.327,1.213
663.592,1.213
663.857,1.227
664.122,1.222
664.388,1.219
664.653,1.217
664.918,1.223
665.183,1.225
665.448,1.223
665.712,1.235
665.977,1.242
666.242,1.253
666.507,1.244
666.772,1.213
667.037,1.217
667.301,1.219
667.566,1.217
667.831,1.212
668.095,1.220
668.360,1.222
668.624,1.232
668.889,1.228
669.153,1.232
669.418,1.230
669.682,1.230
669.946,1.240
670.211,1.241
670.475,1.249
670.739,1.248
671.004,1.259
671.268,1.269
671.532,1.301
671.796,1.294
672.060,1.247
672.324,1.251
672.588,1.261
672.852,1.267
673.116,1.285
673.380,1.335
673.644,1.325
673.908,1.241
674.172,1.238
674.436,1.241
674.700,1.241
674.963,1.239
675.227,1.238
675.491,1.240
675.754,1.223
676.018,1.228
676.282,1.233
676.545,1.241
676.809,1.234
677.072,1.225
677.336,1.222
677.599,1.225
677.863,1.228
678.126,1.227
678.389,1.232
678.653,1.247
678.916,1.243
679.179,1.237
679.442,1.228
679.706,1.230
679.969,1.231
680.232,1.229
680.495,1.235
680.758,1.251
681.021,1.249
681.284,1.240
681.547,1.231
681.810,1.228
682.073,1.240
682.336,1.253
682.599,1.249
682.862,1.240
683.125,1.235
683.388,1.244
683.651,1.247
683.913,1.241
684.176,1.231
684.439,1.215
684.702,1.202
684.964,1.200
685.227,1.205
685.490,1.221
685.752,1.231
686.015,1.240
686.277,1.235
686.540,1.228
686.802,1.221
687.065,1.218
687.327,1.228
687.590,1.239
687.852,1.228
688.115,1.220
688.377,1.215
688.639,1.213
688.902,1.210
689.164,1.212
689.426,1.223
689.689,1.235
689.951,1.238
690.213,1.231
690.475,1.233
690.737,1.235
691.000,1.230
691.262,1.224
691.524,1.221
691.786,1.233
692.048,1.248
692.310,1.248
692.572,1.223
692.834,1.209
693.096,1.210
693.358,1.225
693.620,1.245
693.882,1.257
694.144,1.255
694.406,1.248
694.668,1.242
694.930,1.243
695.192,1.241
695.453,1.237
695.715,1.237
695.977,1.235
696.239,1.223
696.501,1.213
696.762,1.221
697.024,1.233
697.286,1.229
697.548,1.220
697.809,1.232
698.071,1.234
698.333,1.221
698.594,1.223
698.856,1.222
699.118,1.230
699.379,1.230
699.641,1.233
699.902,1.245
700.164,1.244
700.426,1.224
700.687,1.220
700.949,1.218
701.210,1.223
701.472,1.217
701.733,1.212
701.995,1.217
702.256,1.222
702.518,1.220
702.779,1.212
703.041,1.222
703.302,1.255
703.563,1.249
703.825,1.231
704.086,1.232
704.348,1.225
704.609,1.218
704.871,1.221
705.132,1.244
705.393,1.242
705.655,1.222
705.916,1.223
706.177,1.223
706.439,1.221
706.700,1.233
706.961,1.230
707.223,1.224
707.484,1.218
707.745,1.194
708.007,1.191
708.268,1.193
708.529,1.183
708.790,1.173
709.052,1.164
709.313,1.162
709.574,1.174
709.835,1.177
710.097,1.172
710.358,1.162
710.619,1.149
710.881,1.143
711.142,1.142
711.403,1.142
711.664,1.142
711.926,1.148
712.187,1.142
712.448,1.153
712.709,1.167
712.970,1.167
713.232,1.167
713.493,1.170
713.754,1.173
714.015,1.167
714.277,1.173
714.538,1.184
714.799,1.192
715.060,1.197
715.322,1.188
715.583,1.181
715.844,1.172
716.105,1.160
716.367,1.154
716.628,1.167
716.889,1.174
717.150,1.164
717.411,1.161
717.673,1.156
717.934,1.162
718.195,1.170
718.457,1.163
718.718,1.146
718.979,1.142
719.240,1.153
719.502,1.158
719.763,1.163
720.024,1.167
720.286,1.167
720.547,1.167
720.808,1.158
721.069,1.161
721.331,1.163
721.592,1.173
721.853,1.174
722.115,1.167
722.376,1.171
722.638,1.173
722.899,1.173
723.160,1.173
723.422,1.158
723.683,1.150
723.944,1.152
724.206,1.154
724.467,1.157
724.729,1.161
724.990,1.163
725.252,1.173
725.513,1.171
725.775,1.153
726.036,1.144
726.298,1.149
726.559,1.157
726.821,1.154
727.082,1.150
727.344,1.152
727.605,1.157
727.867,1.153
728.128,1.148
728.390,1.157
728.652,1.158
728.913,1.172
729.175,1.183
729.436,1.174
729.698,1.164
729.960,1.179
730.221,1.169
730.483,1.156
730.745,1.141
731.007,1.148
731.268,1.154
731.530,1.157
731.792,1.156
732.054,1.159
732.315,1.158
732.577,1.163
732.839,1.157
733.101,1.150
733.363,1.156
733.625,1.156
733.887,1.146
734.149,1.147
734.411,1.150
734.673,1.167
734.935,1.174
735.197,1.170
735.459,1.164
735.721,1.174
735.983,1.168
736.245,1.151
736.507,1.146
736.769,1.157
737.031,1.168
737.293,1.170
737.555,1.159
737.818,1.160
738.080,1.159
738.342,1.151
738.604,1.161
738.867,1.164
739.129,1.152
739.391,1.146
739.654,1.148
739.916,1.156
740.178,1.159
740.441,1.161
740.703,1.166
740.966,1.157
741.228,1.148
741.491,1.149
741.753,1.147
742.016,1.156
742.278,1.151
742.541,1.153
742.804,1.163
743.066,1.163
743.329,1.172
743.592,1.174
743.854,1.160
744.117,1.168
744.380,1.172
744.643,1.169
744.905,1.160
745.168,1.161
745.431,1.154
745.694,1.152
745.957,1.148
746.220,1.147
746.483,1.142
746.746,1.142
747.009,1.149
747.272,1.164
747.535,1.180
