Wavelength (nm),Intensity BB10.2,,C:/Users/Brend/Desktop/LED Spectras v2/Blinds/-Interference/Spectrometer Data (Newer).sp,,,BB10.2,
379.792,1.628,,2018-07-02 14:36:08,,Integration Time,100 ms,
380.000,1.622,,Analyze Light,,Number of Scans to Average,25,
380.209,1.616,,,,Smoothing,0,
380.418,1.621
380.627,1.630
380.837,1.632
381.048,1.646
381.259,1.647
381.471,1.638
381.683,1.643
381.896,1.639
382.110,1.639
382.324,1.642
382.538,1.662
382.753,1.668
382.969,1.665
383.185,1.654
383.402,1.655
383.619,1.660
383.837,1.674
384.055,1.682
384.274,1.696
384.493,1.699
384.712,1.688
384.932,1.678
385.153,1.692
385.374,1.692
385.596,1.698
385.818,1.706
386.040,1.722
386.263,1.732
386.487,1.730
386.710,1.721
386.935,1.715
387.159,1.699
387.385,1.706
387.610,1.704
387.836,1.698
388.063,1.715
388.289,1.724
388.517,1.723
388.744,1.715
388.972,1.712
389.201,1.731
389.430,1.725
389.659,1.732
389.889,1.743
390.119,1.747
390.349,1.748
390.580,1.751
390.811,1.765
391.042,1.762
391.274,1.763
391.507,1.767
391.739,1.763
391.972,1.755
392.205,1.759
392.439,1.772
392.673,1.786
392.907,1.792
393.142,1.797
393.377,1.799
393.612,1.794
393.848,1.806
394.084,1.799
394.320,1.813
394.557,1.815
394.794,1.826
395.031,1.825
395.269,1.837
395.507,1.849
395.745,1.848
395.983,1.835
396.222,1.841
396.461,1.857
396.700,1.868
396.940,1.882
397.180,1.871
397.420,1.867
397.660,1.857
397.901,1.854
398.142,1.854
398.383,1.854
398.625,1.839
398.866,1.834
399.108,1.859
399.351,1.883
399.593,1.909
399.836,1.887
400.079,1.876
400.322,1.874
400.566,1.873
400.809,1.868
401.053,1.871
401.298,1.884
401.542,1.888
401.787,1.905
402.031,1.916
402.277,1.915
402.522,1.915
402.767,1.910
403.013,1.914
403.259,1.907
403.505,1.911
403.752,1.914
403.998,1.920
404.245,1.927
404.492,1.950
404.739,1.949
404.986,1.936
405.234,1.946
405.482,1.954
405.730,1.948
405.978,1.943
406.226,1.949
406.475,1.939
406.723,1.937
406.972,1.948
407.221,1.963
407.470,1.960
407.720,1.963
407.969,1.967
408.219,1.945
408.469,1.968
408.719,1.981
408.969,1.966
409.219,1.969
409.470,1.982
409.720,1.977
409.971,1.992
410.222,2.004
410.473,2.010
410.724,2.005
410.976,2.002
411.227,2.008
411.479,2.022
411.731,2.013
411.983,2.005
412.235,2.001
412.487,2.009
412.740,2.002
412.992,2.012
413.245,2.019
413.497,2.015
413.750,2.007
414.003,2.004
414.257,1.998
414.510,1.992
414.763,2.004
415.017,2.024
415.270,2.023
415.524,2.036
415.778,2.030
416.032,2.027
416.286,2.028
416.540,2.043
416.794,2.048
417.049,2.055
417.303,2.042
417.558,2.037
417.812,2.042
418.067,2.036
418.322,2.038
418.577,2.045
418.832,2.039
419.088,2.029
419.343,2.015
419.598,2.019
419.854,2.012
420.109,2.025
420.365,2.037
420.621,2.050
420.876,2.059
421.132,2.063
421.388,2.062
421.645,2.054
421.901,2.059
422.157,2.064
422.413,2.058
422.670,2.066
422.926,2.068
423.183,2.066
423.439,2.060
423.696,2.084
423.953,2.100
424.210,2.131
424.467,2.143
424.724,2.124
424.981,2.122
425.238,2.117
425.495,2.139
425.753,2.171
426.010,2.168
426.267,2.174
426.525,2.192
426.782,2.223
427.040,2.236
427.298,2.263
427.555,2.296
427.813,2.322
428.071,2.335
428.329,2.376
428.587,2.392
428.845,2.406
429.103,2.451
429.361,2.483
429.619,2.522
429.878,2.558
430.136,2.602
430.394,2.660
430.653,2.697
430.911,2.775
431.170,2.845
431.428,2.902
431.687,2.953
431.946,3.025
432.204,3.097
432.463,3.185
432.722,3.278
432.981,3.359
433.240,3.440
433.499,3.558
433.758,3.657
434.017,3.786
434.276,3.886
434.535,4.006
434.794,4.126
435.053,4.267
435.312,4.404
435.572,4.556
435.831,4.711
436.090,4.885
436.350,5.061
436.609,5.252
436.869,5.448
437.128,5.639
437.388,5.815
437.647,6.026
437.907,6.261
438.166,6.500
438.426,6.703
438.686,6.931
438.946,7.165
439.205,7.437
439.465,7.702
439.725,8.014
439.985,8.321
440.245,8.628
440.505,8.918
440.765,9.248
441.025,9.593
441.285,9.933
441.545,10.275
441.805,10.660
442.065,11.066
442.325,11.461
442.585,11.863
442.846,12.317
443.106,12.787
443.366,13.299
443.626,13.799
443.887,14.352
444.147,14.895
444.407,15.494
444.668,16.110
444.928,16.749
445.189,17.427
445.449,18.133
445.710,18.875
445.970,19.615
446.231,20.429
446.491,21.284
446.752,22.173
447.012,23.053
447.273,23.995
447.534,24.969
447.794,25.971
448.055,27.025
448.316,28.067
448.577,29.190
448.837,30.374
449.098,31.566
449.359,32.745
449.620,33.927
449.881,35.119
450.142,36.359
450.403,37.594
450.664,38.853
450.924,40.165
451.185,41.476
451.446,42.751
451.707,43.999
451.969,45.217
452.230,46.414
452.491,47.541
452.752,48.621
453.013,49.599
453.274,50.552
453.535,51.400
453.796,52.232
454.058,52.940
454.319,53.558
454.580,54.100
454.841,54.507
455.103,54.855
455.364,55.044
455.625,55.117
455.887,55.108
456.148,54.991
456.409,54.769
456.671,54.472
456.932,54.055
457.194,53.520
457.455,52.896
457.716,52.242
457.978,51.434
458.239,50.597
458.501,49.665
458.763,48.766
459.024,47.764
459.286,46.736
459.547,45.663
459.809,44.562
460.071,43.369
460.332,42.200
460.594,41.090
460.856,39.960
461.117,38.889
461.379,37.834
461.641,36.815
461.903,35.781
462.164,34.803
462.426,33.829
462.688,32.927
462.950,32.042
463.212,31.185
463.474,30.404
463.736,29.659
463.998,28.936
464.260,28.308
464.522,27.683
464.784,27.139
465.046,26.597
465.308,26.065
465.570,25.586
465.832,25.156
466.094,24.722
466.356,24.340
466.618,23.981
466.880,23.596
467.142,23.204
467.405,22.844
467.667,22.482
467.929,22.170
468.191,21.848
468.454,21.501
468.716,21.150
468.978,20.807
469.241,20.429
469.503,20.046
469.765,19.716
470.028,19.378
470.290,19.011
470.552,18.660
470.815,18.312
471.077,17.977
471.340,17.608
471.602,17.264
471.865,16.888
472.128,16.515
472.390,16.117
472.653,15.756
472.915,15.350
473.178,14.987
473.441,14.625
473.703,14.269
473.966,13.862
474.229,13.494
474.492,13.122
474.755,12.760
475.017,12.389
475.280,12.081
475.543,11.747
475.806,11.445
476.069,11.089
476.332,10.730
476.595,10.417
476.858,10.132
477.121,9.840
477.384,9.555
477.647,9.253
477.910,9.028
478.173,8.758
478.436,8.529
478.699,8.279
478.962,8.089
479.226,7.883
479.489,7.678
479.752,7.477
480.015,7.300
480.279,7.109
480.542,6.942
480.805,6.753
481.069,6.595
481.332,6.421
481.595,6.289
481.859,6.121
482.122,6.013
482.386,5.876
482.649,5.744
482.913,5.608
483.177,5.495
483.440,5.336
483.704,5.226
483.967,5.117
484.231,5.032
484.495,4.926
484.759,4.820
485.022,4.701
485.286,4.581
485.550,4.476
485.814,4.376
486.078,4.225
486.342,4.136
486.606,4.029
486.869,3.964
487.133,3.886
487.397,3.813
487.662,3.723
487.926,3.636
488.190,3.526
488.454,3.464
488.718,3.372
488.982,3.303
489.246,3.208
489.511,3.147
489.775,3.053
490.039,2.983
490.304,2.918
490.568,2.854
490.832,2.779
491.097,2.737
491.361,2.696
491.626,2.642
491.890,2.576
492.155,2.517
492.419,2.473
492.684,2.446
492.949,2.390
493.213,2.344
493.478,2.323
493.743,2.293
494.008,2.235
494.272,2.189
494.537,2.159
494.802,2.136
495.067,2.120
495.332,2.102
495.597,2.079
495.862,2.065
496.127,2.034
496.392,2.021
496.657,1.990
496.922,1.953
497.187,1.929
497.452,1.919
497.718,1.903
497.983,1.906
498.248,1.888
498.513,1.867
498.779,1.848
499.044,1.857
499.310,1.843
499.575,1.811
499.841,1.797
500.106,1.794
500.372,1.781
500.637,1.760
500.903,1.760
501.168,1.778
501.434,1.759
501.700,1.732
501.966,1.716
502.231,1.709
502.497,1.697
502.763,1.693
503.029,1.680
503.295,1.670
503.561,1.664
503.827,1.656
504.093,1.656
504.359,1.644
504.625,1.629
504.891,1.628
505.157,1.619
505.423,1.616
505.690,1.596
505.956,1.579
506.222,1.583
506.489,1.589
506.755,1.603
507.021,1.606
507.288,1.603
507.554,1.594
507.821,1.579
508.087,1.568
508.354,1.578
508.621,1.592
508.887,1.577
509.154,1.545
509.421,1.541
509.687,1.529
509.954,1.508
510.221,1.504
510.488,1.507
510.755,1.526
511.022,1.543
511.289,1.533
511.556,1.497
511.823,1.491
512.090,1.495
512.357,1.508
512.624,1.494
512.891,1.498
513.159,1.488
513.426,1.479
513.693,1.465
513.960,1.458
514.228,1.459
514.495,1.463
514.763,1.463
515.030,1.456
515.298,1.454
515.565,1.446
515.833,1.454
516.100,1.453
516.368,1.448
516.636,1.445
516.904,1.443
517.171,1.443
517.439,1.442
517.707,1.445
517.975,1.432
518.243,1.436
518.511,1.450
518.779,1.444
519.047,1.426
519.315,1.438
519.583,1.436
519.851,1.419
520.119,1.412
520.387,1.414
520.656,1.402
520.924,1.408
521.192,1.417
521.461,1.416
521.729,1.416
521.997,1.420
522.266,1.414
522.534,1.417
522.803,1.413
523.071,1.415
523.340,1.413
523.609,1.404
523.877,1.393
524.146,1.396
524.415,1.392
524.684,1.396
524.952,1.403
525.221,1.394
525.490,1.395
525.759,1.411
526.028,1.406
526.297,1.396
526.566,1.392
526.835,1.393
527.104,1.396
527.373,1.401
527.642,1.395
527.912,1.376
528.181,1.362
528.450,1.366
528.719,1.371
528.989,1.387
529.258,1.400
529.528,1.407
529.797,1.396
530.067,1.387
530.336,1.393
530.606,1.382
530.875,1.372
531.145,1.366
531.414,1.367
531.684,1.375
531.954,1.389
532.224,1.383
532.493,1.371
532.763,1.358
533.033,1.359
533.303,1.368
533.573,1.376
533.843,1.372
534.113,1.363
534.383,1.363
534.653,1.353
534.923,1.360
535.193,1.368
535.463,1.372
535.733,1.385
536.004,1.383
536.274,1.379
536.544,1.379
536.814,1.364
537.085,1.354
537.355,1.354
537.626,1.375
537.896,1.384
538.166,1.375
538.437,1.373
538.707,1.371
538.978,1.359
539.249,1.368
539.519,1.376
539.790,1.367
540.061,1.342
540.331,1.351
540.602,1.366
540.873,1.368
541.144,1.368
541.414,1.370
541.685,1.367
541.956,1.367
542.227,1.362
542.498,1.353
542.769,1.346
543.040,1.356
543.311,1.367
543.582,1.368
543.853,1.370
544.124,1.362
544.396,1.368
544.667,1.376
544.938,1.377
545.209,1.365
545.480,1.342
545.752,1.352
546.023,1.367
546.294,1.369
546.566,1.350
546.837,1.343
547.109,1.339
547.380,1.338
547.652,1.342
547.923,1.342
548.195,1.346
548.466,1.363
548.738,1.374
549.009,1.388
549.281,1.380
549.553,1.376
549.824,1.359
550.096,1.345
550.368,1.341
550.640,1.346
550.911,1.344
551.183,1.361
551.455,1.384
551.727,1.398
551.999,1.388
552.271,1.366
552.543,1.346
552.815,1.346
553.087,1.350
553.359,1.368
553.631,1.375
553.903,1.376
554.175,1.380
554.447,1.389
554.719,1.387
554.991,1.379
555.263,1.379
555.535,1.378
555.808,1.366
556.080,1.358
556.352,1.358
556.624,1.361
556.897,1.363
557.169,1.356
557.441,1.348
557.714,1.339
557.986,1.335
558.258,1.344
558.531,1.340
558.803,1.357
559.076,1.362
559.348,1.363
559.621,1.351
559.893,1.347
560.166,1.359
560.438,1.346
560.711,1.340
560.983,1.336
561.256,1.332
561.528,1.340
561.801,1.352
562.074,1.363
562.346,1.373
562.619,1.385
562.892,1.380
563.164,1.362
563.437,1.361
563.710,1.366
563.983,1.352
564.255,1.339
564.528,1.338
564.801,1.362
565.074,1.368
565.346,1.365
565.619,1.347
565.892,1.351
566.165,1.352
566.438,1.332
566.711,1.326
566.984,1.340
567.257,1.346
567.529,1.342
567.802,1.356
568.075,1.369
568.348,1.362
568.621,1.355
568.894,1.361
569.167,1.354
569.440,1.350
569.713,1.343
569.986,1.332
570.259,1.339
570.532,1.344
570.805,1.348
571.078,1.352
571.351,1.348
571.625,1.351
571.898,1.354
572.171,1.339
572.444,1.330
572.717,1.327
572.990,1.343
573.263,1.351
573.536,1.336
573.809,1.324
574.083,1.313
574.356,1.323
574.629,1.346
574.902,1.355
575.175,1.349
575.448,1.335
575.721,1.321
575.995,1.326
576.268,1.330
576.541,1.327
576.814,1.349
577.087,1.359
577.361,1.357
577.634,1.358
577.907,1.344
578.180,1.324
578.453,1.319
578.727,1.326
579.000,1.329
579.273,1.327
579.546,1.346
579.820,1.359
580.093,1.363
580.366,1.354
580.639,1.339
580.913,1.334
581.186,1.338
581.459,1.330
581.732,1.327
582.005,1.319
582.279,1.326
582.552,1.325
582.825,1.330
583.098,1.325
583.372,1.325
583.645,1.341
583.918,1.345
584.191,1.340
584.464,1.341
584.738,1.330
585.011,1.331
585.284,1.332
585.557,1.327
585.831,1.324
586.104,1.340
586.377,1.355
586.650,1.372
586.923,1.368
587.196,1.361
587.470,1.358
587.743,1.342
588.016,1.342
588.289,1.337
588.562,1.344
588.835,1.342
589.109,1.330
589.382,1.323
589.655,1.323
589.928,1.316
590.201,1.316
590.474,1.322
590.747,1.340
591.020,1.348
591.293,1.345
591.567,1.341
591.840,1.343
592.113,1.337
592.386,1.335
592.659,1.323
592.932,1.322
593.205,1.340
593.478,1.339
593.751,1.333
594.024,1.326
594.297,1.327
594.570,1.318
594.843,1.323
595.116,1.327
595.389,1.326
595.662,1.323
595.934,1.317
596.207,1.324
596.480,1.335
596.753,1.342
597.026,1.348
597.299,1.341
597.572,1.342
597.844,1.338
598.117,1.326
598.390,1.314
598.663,1.323
598.936,1.320
599.208,1.325
599.481,1.328
599.754,1.335
600.026,1.336
600.299,1.309
600.572,1.309
600.844,1.324
601.117,1.322
601.390,1.312
601.662,1.311
601.935,1.315
602.207,1.317
602.480,1.326
602.752,1.328
603.025,1.319
603.297,1.308
603.570,1.310
603.842,1.320
604.115,1.337
604.387,1.338
604.660,1.338
604.932,1.322
605.204,1.320
605.477,1.325
605.749,1.329
606.021,1.340
606.294,1.347
606.566,1.341
606.838,1.328
607.110,1.331
607.383,1.335
607.655,1.333
607.927,1.337
608.199,1.349
608.471,1.346
608.743,1.344
609.015,1.326
609.287,1.321
609.559,1.324
609.831,1.319
610.103,1.327
610.375,1.329
610.647,1.322
610.919,1.316
611.191,1.320
611.463,1.329
611.735,1.328
612.007,1.325
612.278,1.318
612.550,1.322
612.822,1.324
613.094,1.329
613.365,1.326
613.637,1.321
613.909,1.331
614.180,1.329
614.452,1.334
614.723,1.326
614.995,1.322
615.266,1.316
615.538,1.330
615.809,1.340
616.081,1.328
616.352,1.318
616.623,1.319
616.895,1.318
617.166,1.310
617.437,1.315
617.709,1.312
617.980,1.317
618.251,1.327
618.522,1.334
618.793,1.345
619.065,1.366
619.336,1.376
619.607,1.344
619.878,1.330
620.149,1.348
620.420,1.350
620.691,1.333
620.962,1.335
621.232,1.350
621.503,1.350
621.774,1.326
622.045,1.326
622.316,1.337
622.586,1.345
622.857,1.348
623.128,1.350
623.398,1.350
623.669,1.343
623.940,1.336
624.210,1.321
624.481,1.322
624.751,1.335
625.021,1.326
625.292,1.317
625.562,1.317
625.833,1.317
626.103,1.315
626.373,1.311
626.643,1.307
626.914,1.320
627.184,1.334
627.454,1.335
627.724,1.332
627.994,1.329
628.264,1.332
628.534,1.333
628.804,1.321
629.074,1.320
629.344,1.328
629.614,1.337
629.884,1.332
630.154,1.317
630.424,1.312
630.693,1.305
630.963,1.297
631.233,1.286
631.502,1.285
631.772,1.307
632.041,1.324
632.311,1.319
632.581,1.316
632.850,1.310
633.119,1.304
633.389,1.294
633.658,1.284
633.928,1.288
634.197,1.311
634.466,1.325
634.735,1.330
635.004,1.332
635.274,1.322
635.543,1.314
635.812,1.316
636.081,1.311
636.350,1.312
636.619,1.315
636.888,1.314
637.157,1.322
637.426,1.323
637.694,1.324
637.963,1.315
638.232,1.315
638.501,1.318
638.769,1.323
639.038,1.325
639.307,1.328
639.575,1.337
639.844,1.334
640.112,1.328
640.381,1.326
640.649,1.315
640.917,1.320
641.186,1.322
641.454,1.323
641.722,1.328
641.991,1.314
642.259,1.317
642.527,1.306
642.795,1.315
643.063,1.315
643.331,1.297
643.599,1.296
643.867,1.309
644.135,1.315
644.403,1.319
644.671,1.324
644.939,1.320
645.206,1.328
645.474,1.331
645.742,1.331
646.009,1.322
646.277,1.316
646.545,1.313
646.812,1.320
647.080,1.330
647.347,1.330
647.615,1.326
647.882,1.318
648.149,1.303
648.417,1.298
648.684,1.301
648.951,1.309
649.219,1.315
649.486,1.318
649.753,1.311
650.020,1.312
650.287,1.302
650.554,1.298
650.821,1.300
651.088,1.299
651.355,1.308
651.622,1.324
651.889,1.321
652.155,1.319
652.422,1.311
652.689,1.307
652.956,1.316
653.222,1.317
653.489,1.326
653.755,1.345
654.022,1.333
654.288,1.316
654.555,1.314
654.821,1.319
655.088,1.327
655.354,1.335
655.620,1.340
655.887,1.342
656.153,1.336
656.419,1.339
656.685,1.337
656.951,1.332
657.217,1.333
657.483,1.321
657.749,1.313
658.015,1.314
658.281,1.312
658.547,1.309
658.813,1.298
659.079,1.303
659.345,1.304
659.610,1.305
659.876,1.313
660.142,1.318
660.407,1.312
660.673,1.316
660.939,1.319
661.204,1.317
661.470,1.310
661.735,1.307
662.000,1.307
662.266,1.306
662.531,1.307
662.796,1.308
663.062,1.310
663.327,1.306
663.592,1.304
663.857,1.316
664.122,1.314
664.388,1.305
664.653,1.298
664.918,1.311
665.183,1.319
665.448,1.317
665.712,1.326
665.977,1.320
666.242,1.323
666.507,1.314
666.772,1.294
667.037,1.291
667.301,1.289
667.566,1.294
667.831,1.299
668.095,1.302
668.360,1.293
668.624,1.304
668.889,1.296
669.153,1.302
669.418,1.294
669.682,1.294
669.946,1.309
670.211,1.317
670.475,1.326
670.739,1.330
671.004,1.338
671.268,1.347
671.532,1.382
671.796,1.391
672.060,1.331
672.324,1.333
672.588,1.336
672.852,1.337
673.116,1.358
673.380,1.414
673.644,1.404
673.908,1.317
674.172,1.314
674.436,1.310
674.700,1.320
674.963,1.322
675.227,1.323
675.491,1.324
675.754,1.311
676.018,1.310
676.282,1.314
676.545,1.318
676.809,1.311
677.072,1.300
677.336,1.296
677.599,1.305
677.863,1.309
678.126,1.302
678.389,1.308
678.653,1.327
678.916,1.322
679.179,1.313
679.442,1.307
679.706,1.309
679.969,1.311
680.232,1.302
680.495,1.314
680.758,1.333
681.021,1.328
681.284,1.309
681.547,1.299
681.810,1.298
682.073,1.315
682.336,1.337
682.599,1.327
682.862,1.323
683.125,1.326
683.388,1.328
683.651,1.336
683.913,1.340
684.176,1.331
684.439,1.316
684.702,1.300
684.964,1.293
685.227,1.300
685.490,1.315
685.752,1.324
686.015,1.329
686.277,1.320
686.540,1.310
686.802,1.300
687.065,1.295
687.327,1.308
687.590,1.313
687.852,1.309
688.115,1.302
688.377,1.289
688.639,1.293
688.902,1.292
689.164,1.292
689.426,1.311
689.689,1.326
689.951,1.326
690.213,1.311
690.475,1.316
690.737,1.322
691.000,1.313
691.262,1.306
691.524,1.308
691.786,1.321
692.048,1.326
692.310,1.329
692.572,1.310
692.834,1.293
693.096,1.301
693.358,1.304
693.620,1.310
693.882,1.325
694.144,1.328
694.406,1.320
694.668,1.308
694.930,1.317
695.192,1.317
695.453,1.319
695.715,1.322
695.977,1.319
696.239,1.310
696.501,1.301
696.762,1.299
697.024,1.309
697.286,1.300
697.548,1.291
697.809,1.301
698.071,1.306
698.333,1.302
698.594,1.306
698.856,1.307
699.118,1.315
699.379,1.312
699.641,1.314
699.902,1.323
700.164,1.329
700.426,1.319
700.687,1.324
700.949,1.325
701.210,1.325
701.472,1.316
701.733,1.301
701.995,1.302
702.256,1.311
702.518,1.306
702.779,1.299
703.041,1.305
703.302,1.325
703.563,1.319
703.825,1.305
704.086,1.299
704.348,1.302
704.609,1.299
704.871,1.310
705.132,1.326
705.393,1.321
705.655,1.301
705.916,1.313
706.177,1.321
706.439,1.319
706.700,1.319
706.961,1.311
707.223,1.307
707.484,1.308
707.745,1.291
708.007,1.277
708.268,1.273
708.529,1.260
708.790,1.255
709.052,1.243
709.313,1.242
709.574,1.254
709.835,1.255
710.097,1.256
710.358,1.242
710.619,1.226
710.881,1.224
711.142,1.225
711.403,1.224
711.664,1.223
711.926,1.223
712.187,1.213
712.448,1.227
712.709,1.232
712.970,1.235
713.232,1.242
713.493,1.243
713.754,1.242
714.015,1.244
714.277,1.248
714.538,1.249
714.799,1.252
715.060,1.272
715.322,1.269
715.583,1.265
715.844,1.259
716.105,1.245
716.367,1.228
716.628,1.234
716.889,1.237
717.150,1.239
717.411,1.236
717.673,1.229
717.934,1.241
718.195,1.248
718.457,1.249
718.718,1.235
718.979,1.226
719.240,1.241
719.502,1.243
719.763,1.247
720.024,1.253
720.286,1.254
720.547,1.242
720.808,1.232
721.069,1.236
721.331,1.233
721.592,1.243
721.853,1.251
722.115,1.248
722.376,1.258
722.638,1.264
722.899,1.260
723.160,1.254
723.422,1.245
723.683,1.236
723.944,1.239
724.206,1.243
724.467,1.236
724.729,1.239
724.990,1.243
725.252,1.250
725.513,1.247
725.775,1.231
726.036,1.233
726.298,1.238
726.559,1.239
726.821,1.240
727.082,1.239
727.344,1.241
727.605,1.235
727.867,1.227
728.128,1.230
728.390,1.233
728.652,1.231
728.913,1.241
729.175,1.254
729.436,1.244
729.698,1.244
729.960,1.255
730.221,1.246
730.483,1.237
730.745,1.234
731.007,1.246
731.268,1.241
731.530,1.232
731.792,1.239
732.054,1.241
732.315,1.243
732.577,1.248
732.839,1.248
733.101,1.238
733.363,1.236
733.625,1.239
733.887,1.237
734.149,1.232
734.411,1.237
734.673,1.242
734.935,1.244
735.197,1.237
735.459,1.231
735.721,1.242
735.983,1.240
736.245,1.222
736.507,1.221
736.769,1.236
737.031,1.241
737.293,1.242
737.555,1.228
737.818,1.219
738.080,1.218
738.342,1.212
738.604,1.215
738.867,1.225
739.129,1.220
739.391,1.215
739.654,1.219
739.916,1.227
740.178,1.231
740.441,1.235
740.703,1.241
740.966,1.234
741.228,1.228
741.491,1.232
741.753,1.231
742.016,1.238
742.278,1.231
742.541,1.232
742.804,1.242
743.066,1.248
743.329,1.253
743.592,1.248
743.854,1.241
744.117,1.248
744.380,1.258
744.643,1.249
744.905,1.238
745.168,1.234
745.431,1.238
745.694,1.226
745.957,1.230
746.220,1.227
746.483,1.220
746.746,1.227
747.009,1.234
747.272,1.247
747.535,1.266
