Wavelength (nm),Intensity BB2.2,,C:/Users/Brend/Desktop/LED Spectras v2/Blinds/-Interference/Spectrometer Data (Newer).sp,,,BB2.2,
379.792,1.573,,2018-07-02 14:39:25,,Integration Time,100 ms,
380.000,1.551,,Analyze Light,,Number of Scans to Average,25,
380.209,1.543,,,,Smoothing,0,
380.418,1.558
380.627,1.582
380.837,1.587
381.048,1.603
381.259,1.604
381.471,1.593
381.683,1.600
381.896,1.595
382.110,1.593
382.324,1.600
382.538,1.619
382.753,1.634
382.969,1.625
383.185,1.608
383.402,1.606
383.619,1.604
383.837,1.613
384.055,1.619
384.274,1.630
384.493,1.639
384.712,1.634
384.932,1.642
385.153,1.647
385.374,1.651
385.596,1.656
385.818,1.663
386.040,1.676
386.263,1.683
386.487,1.680
386.710,1.675
386.935,1.670
387.159,1.662
387.385,1.659
387.610,1.654
387.836,1.652
388.063,1.662
388.289,1.665
388.517,1.668
388.744,1.676
388.972,1.669
389.201,1.683
389.430,1.678
389.659,1.679
389.889,1.681
390.119,1.684
390.349,1.687
390.580,1.692
390.811,1.702
391.042,1.700
391.274,1.703
391.507,1.716
391.739,1.708
391.972,1.700
392.205,1.706
392.439,1.718
392.673,1.718
392.907,1.717
393.142,1.723
393.377,1.735
393.612,1.737
393.848,1.750
394.084,1.751
394.320,1.745
394.557,1.739
394.794,1.745
395.031,1.750
395.269,1.763
395.507,1.775
395.745,1.774
395.983,1.772
396.222,1.774
396.461,1.781
396.700,1.801
396.940,1.808
397.180,1.803
397.420,1.803
397.660,1.803
397.901,1.799
398.142,1.806
398.383,1.812
398.625,1.794
398.866,1.794
399.108,1.824
399.351,1.850
399.593,1.857
399.836,1.841
400.079,1.833
400.322,1.823
400.566,1.814
400.809,1.805
401.053,1.806
401.298,1.827
401.542,1.824
401.787,1.842
402.031,1.855
402.277,1.861
402.522,1.873
402.767,1.871
403.013,1.860
403.259,1.846
403.505,1.861
403.752,1.858
403.998,1.863
404.245,1.867
404.492,1.890
404.739,1.897
404.986,1.895
405.234,1.897
405.482,1.889
405.730,1.874
405.978,1.869
406.226,1.879
406.475,1.864
406.723,1.855
406.972,1.877
407.221,1.899
407.470,1.906
407.720,1.915
407.969,1.906
408.219,1.891
408.469,1.910
408.719,1.917
408.969,1.915
409.219,1.916
409.470,1.937
409.720,1.934
409.971,1.943
410.222,1.950
410.473,1.957
410.724,1.949
410.976,1.938
411.227,1.941
411.479,1.958
411.731,1.966
411.983,1.966
412.235,1.957
412.487,1.958
412.740,1.958
412.992,1.979
413.245,1.974
413.497,1.974
413.750,1.974
414.003,1.976
414.257,1.962
414.510,1.958
414.763,1.965
415.017,1.979
415.270,1.980
415.524,1.978
415.778,1.974
416.032,1.982
416.286,1.987
416.540,1.999
416.794,1.995
417.049,1.998
417.303,1.998
417.558,2.002
417.812,2.011
418.067,2.004
418.322,2.006
418.577,2.013
418.832,2.000
419.088,2.000
419.343,1.993
419.598,2.001
419.854,1.998
420.109,2.004
420.365,2.015
420.621,2.024
420.876,2.029
421.132,2.039
421.388,2.024
421.645,2.016
421.901,2.017
422.157,2.022
422.413,2.024
422.670,2.032
422.926,2.024
423.183,2.031
423.439,2.018
423.696,2.033
423.953,2.050
424.210,2.082
424.467,2.085
424.724,2.060
424.981,2.056
425.238,2.063
425.495,2.068
425.753,2.094
426.010,2.105
426.267,2.103
426.525,2.105
426.782,2.131
427.040,2.134
427.298,2.154
427.555,2.181
427.813,2.193
428.071,2.204
428.329,2.226
428.587,2.230
428.845,2.236
429.103,2.261
429.361,2.286
429.619,2.306
429.878,2.344
430.136,2.360
430.394,2.391
430.653,2.427
430.911,2.496
431.170,2.547
431.428,2.582
431.687,2.608
431.946,2.654
432.204,2.685
432.463,2.735
432.722,2.808
432.981,2.866
433.240,2.924
433.499,3.001
433.758,3.082
434.017,3.190
434.276,3.263
434.535,3.343
434.794,3.419
435.053,3.521
435.312,3.613
435.572,3.718
435.831,3.814
436.090,3.938
436.350,4.070
436.609,4.211
436.869,4.357
437.128,4.497
437.388,4.645
437.647,4.812
437.907,4.971
438.166,5.170
438.426,5.333
438.686,5.514
438.946,5.698
439.205,5.906
439.465,6.128
439.725,6.375
439.985,6.592
440.245,6.850
440.505,7.076
440.765,7.346
441.025,7.595
441.285,7.891
441.545,8.168
441.805,8.479
442.065,8.769
442.325,9.099
442.585,9.449
442.846,9.830
443.106,10.186
443.366,10.601
443.626,11.020
443.887,11.435
444.147,11.873
444.407,12.344
444.668,12.818
444.928,13.294
445.189,13.802
445.449,14.399
445.710,14.952
445.970,15.565
446.231,16.184
446.491,16.849
446.752,17.548
447.012,18.252
447.273,18.952
447.534,19.689
447.794,20.457
448.055,21.237
448.316,22.083
448.577,22.971
448.837,23.904
449.098,24.808
449.359,25.788
449.620,26.784
449.881,27.745
450.142,28.768
450.403,29.813
450.664,30.844
450.924,31.965
451.185,33.106
451.446,34.245
451.707,35.436
451.969,36.571
452.230,37.751
452.491,38.913
452.752,40.076
453.013,41.209
453.274,42.355
453.535,43.442
453.796,44.512
454.058,45.524
454.319,46.513
454.580,47.475
454.841,48.349
455.103,49.151
455.364,49.902
455.625,50.636
455.887,51.320
456.148,51.923
456.409,52.429
456.671,52.902
456.932,53.281
457.194,53.563
457.455,53.791
457.716,53.880
457.978,53.884
458.239,53.851
458.501,53.751
458.763,53.587
459.024,53.299
459.286,52.885
459.547,52.424
459.809,51.910
460.071,51.244
460.332,50.579
460.594,49.829
460.856,49.040
461.117,48.175
461.379,47.302
461.641,46.411
461.903,45.519
462.164,44.562
462.426,43.640
462.688,42.653
462.950,41.691
463.212,40.746
463.474,39.756
463.736,38.772
463.998,37.850
464.260,36.965
464.522,36.087
464.784,35.231
465.046,34.431
465.308,33.620
465.570,32.879
465.832,32.137
466.094,31.452
466.356,30.758
466.618,30.162
466.880,29.536
467.142,28.919
467.405,28.375
467.667,27.842
467.929,27.371
468.191,26.902
468.454,26.427
468.716,25.950
468.978,25.516
469.241,25.062
469.503,24.623
469.765,24.228
470.028,23.862
470.290,23.475
470.552,23.072
470.815,22.685
471.077,22.324
471.340,21.950
471.602,21.589
471.865,21.242
472.128,20.889
472.390,20.543
472.653,20.188
472.915,19.810
473.178,19.426
473.441,19.067
473.703,18.698
473.966,18.294
474.229,17.911
474.492,17.510
474.755,17.093
475.017,16.691
475.280,16.349
475.543,15.984
475.806,15.618
476.069,15.200
476.332,14.825
476.595,14.465
476.858,14.106
477.121,13.702
477.384,13.328
477.647,12.968
477.910,12.626
478.173,12.278
478.436,11.947
478.699,11.608
478.962,11.326
479.226,11.021
479.489,10.707
479.752,10.413
480.015,10.159
480.279,9.895
480.542,9.629
480.805,9.337
481.069,9.081
481.332,8.821
481.595,8.617
481.859,8.397
482.122,8.248
482.386,8.022
482.649,7.811
482.913,7.590
483.177,7.419
483.440,7.232
483.704,7.063
483.967,6.890
484.231,6.758
484.495,6.624
484.759,6.479
485.022,6.311
485.286,6.161
485.550,6.013
485.814,5.858
486.078,5.685
486.342,5.558
486.606,5.432
486.869,5.344
487.133,5.225
487.397,5.123
487.662,5.018
487.926,4.917
488.190,4.789
488.454,4.674
488.718,4.543
488.982,4.454
489.246,4.338
489.511,4.250
489.775,4.145
490.039,4.048
490.304,3.944
490.568,3.855
490.832,3.757
491.097,3.698
491.361,3.606
491.626,3.540
491.890,3.451
492.155,3.385
492.419,3.295
492.684,3.233
492.949,3.120
493.213,3.044
493.478,2.995
493.743,2.943
494.008,2.845
494.272,2.768
494.537,2.707
494.802,2.654
495.067,2.608
495.332,2.589
495.597,2.545
495.862,2.497
496.127,2.453
496.392,2.419
496.657,2.363
496.922,2.311
497.187,2.271
497.452,2.247
497.718,2.212
497.983,2.201
498.248,2.171
498.513,2.131
498.779,2.095
499.044,2.095
499.310,2.067
499.575,2.037
499.841,2.016
500.106,1.996
500.372,1.979
500.637,1.945
500.903,1.944
501.168,1.946
501.434,1.907
501.700,1.874
501.966,1.852
502.231,1.850
502.497,1.830
502.763,1.811
503.029,1.790
503.295,1.774
503.561,1.773
503.827,1.763
504.093,1.758
504.359,1.756
504.625,1.737
504.891,1.723
505.157,1.697
505.423,1.689
505.690,1.670
505.956,1.651
506.222,1.645
506.489,1.653
506.755,1.659
507.021,1.664
507.288,1.673
507.554,1.670
507.821,1.650
508.087,1.642
508.354,1.635
508.621,1.641
508.887,1.624
509.154,1.609
509.421,1.600
509.687,1.581
509.954,1.564
510.221,1.570
510.488,1.547
510.755,1.549
511.022,1.559
511.289,1.557
511.556,1.536
511.823,1.526
512.090,1.530
512.357,1.534
512.624,1.521
512.891,1.519
513.159,1.514
513.426,1.505
513.693,1.504
513.960,1.490
514.228,1.481
514.495,1.482
514.763,1.485
515.030,1.480
515.298,1.473
515.565,1.459
515.833,1.475
516.100,1.473
516.368,1.464
516.636,1.460
516.904,1.448
517.171,1.447
517.439,1.449
517.707,1.453
517.975,1.440
518.243,1.438
518.511,1.442
518.779,1.427
519.047,1.408
519.315,1.429
519.583,1.421
519.851,1.404
520.119,1.400
520.387,1.409
520.656,1.404
520.924,1.410
521.192,1.411
521.461,1.411
521.729,1.418
521.997,1.421
522.266,1.414
522.534,1.413
522.803,1.410
523.071,1.409
523.340,1.403
523.609,1.391
523.877,1.381
524.146,1.383
524.415,1.387
524.684,1.391
524.952,1.393
525.221,1.377
525.490,1.386
525.759,1.405
526.028,1.396
526.297,1.379
526.566,1.369
526.835,1.370
527.104,1.379
527.373,1.387
527.642,1.388
527.912,1.376
528.181,1.359
528.450,1.360
528.719,1.363
528.989,1.370
529.258,1.382
529.528,1.382
529.797,1.372
530.067,1.371
530.336,1.380
530.606,1.365
530.875,1.355
531.145,1.346
531.414,1.349
531.684,1.361
531.954,1.368
532.224,1.361
532.493,1.353
532.763,1.348
533.033,1.341
533.303,1.342
533.573,1.346
533.843,1.341
534.113,1.331
534.383,1.339
534.653,1.327
534.923,1.341
535.193,1.349
535.463,1.349
535.733,1.352
536.004,1.357
536.274,1.354
536.544,1.352
536.814,1.341
537.085,1.335
537.355,1.341
537.626,1.349
537.896,1.358
538.166,1.358
538.437,1.349
538.707,1.343
538.978,1.337
539.249,1.338
539.519,1.346
539.790,1.330
540.061,1.314
540.331,1.325
540.602,1.331
540.873,1.343
541.144,1.350
541.414,1.355
541.685,1.343
541.956,1.346
542.227,1.344
542.498,1.339
542.769,1.328
543.040,1.333
543.311,1.347
543.582,1.352
543.853,1.357
544.124,1.350
544.396,1.354
544.667,1.357
544.938,1.354
545.209,1.339
545.480,1.313
545.752,1.332
546.023,1.337
546.294,1.338
546.566,1.326
546.837,1.320
547.109,1.316
547.380,1.322
547.652,1.322
547.923,1.324
548.195,1.324
548.466,1.339
548.738,1.348
549.009,1.347
549.281,1.337
549.553,1.326
549.824,1.319
550.096,1.310
550.368,1.311
550.640,1.319
550.911,1.310
551.183,1.322
551.455,1.344
551.727,1.361
551.999,1.352
552.271,1.336
552.543,1.325
552.815,1.328
553.087,1.326
553.359,1.336
553.631,1.335
553.903,1.338
554.175,1.342
554.447,1.353
554.719,1.357
554.991,1.347
555.263,1.344
555.535,1.341
555.808,1.325
556.080,1.326
556.352,1.321
556.624,1.326
556.897,1.328
557.169,1.319
557.441,1.317
557.714,1.319
557.986,1.315
558.258,1.313
558.531,1.313
558.803,1.331
559.076,1.339
559.348,1.341
559.621,1.324
559.893,1.330
560.166,1.339
560.438,1.328
560.711,1.315
560.983,1.315
561.256,1.317
561.528,1.324
561.801,1.332
562.074,1.330
562.346,1.331
562.619,1.337
562.892,1.337
563.164,1.325
563.437,1.325
563.710,1.339
563.983,1.332
564.255,1.322
564.528,1.320
564.801,1.338
565.074,1.349
565.346,1.333
565.619,1.325
565.892,1.338
566.165,1.346
566.438,1.324
566.711,1.308
566.984,1.311
567.257,1.309
567.529,1.316
567.802,1.327
568.075,1.341
568.348,1.335
568.621,1.324
568.894,1.325
569.167,1.325
569.440,1.331
569.713,1.313
569.986,1.295
570.259,1.303
570.532,1.305
570.805,1.311
571.078,1.315
571.351,1.314
571.625,1.322
571.898,1.327
572.171,1.317
572.444,1.308
572.717,1.320
572.990,1.333
573.263,1.333
573.536,1.319
573.809,1.310
574.083,1.303
574.356,1.304
574.629,1.319
574.902,1.325
575.175,1.321
575.448,1.306
575.721,1.293
575.995,1.297
576.268,1.298
576.541,1.303
576.814,1.317
577.087,1.322
577.361,1.324
577.634,1.325
577.907,1.320
578.180,1.298
578.453,1.297
578.727,1.300
579.000,1.294
579.273,1.298
579.546,1.321
579.820,1.332
580.093,1.331
580.366,1.327
580.639,1.309
580.913,1.306
581.186,1.306
581.459,1.308
581.732,1.310
582.005,1.294
582.279,1.293
582.552,1.293
582.825,1.308
583.098,1.309
583.372,1.309
583.645,1.316
583.918,1.320
584.191,1.324
584.464,1.315
584.738,1.299
585.011,1.303
585.284,1.306
585.557,1.304
585.831,1.308
586.104,1.316
586.377,1.320
586.650,1.328
586.923,1.327
587.196,1.322
587.470,1.319
587.743,1.308
588.016,1.306
588.289,1.309
588.562,1.316
588.835,1.330
589.109,1.325
589.382,1.315
589.655,1.317
589.928,1.311
590.201,1.299
590.474,1.310
590.747,1.326
591.020,1.327
591.293,1.324
591.567,1.320
591.840,1.306
592.113,1.304
592.386,1.311
592.659,1.299
592.932,1.287
593.205,1.294
593.478,1.299
593.751,1.292
594.024,1.297
594.297,1.295
594.570,1.281
594.843,1.291
595.116,1.308
595.389,1.310
595.662,1.298
595.934,1.286
596.207,1.293
596.480,1.308
596.753,1.311
597.026,1.315
597.299,1.304
597.572,1.306
597.844,1.308
598.117,1.303
598.390,1.297
598.663,1.297
598.936,1.299
599.208,1.309
599.481,1.313
599.754,1.316
600.026,1.308
600.299,1.288
600.572,1.281
600.844,1.281
601.117,1.280
601.390,1.282
601.662,1.282
601.935,1.288
602.207,1.280
602.480,1.284
602.752,1.293
603.025,1.278
603.297,1.275
603.570,1.287
603.842,1.293
604.115,1.310
604.387,1.309
604.660,1.310
604.932,1.305
605.204,1.311
605.477,1.326
605.749,1.331
606.021,1.326
606.294,1.332
606.566,1.320
606.838,1.302
607.110,1.305
607.383,1.313
607.655,1.308
607.927,1.302
608.199,1.308
608.471,1.309
608.743,1.309
609.015,1.305
609.287,1.302
609.559,1.306
609.831,1.302
610.103,1.298
610.375,1.298
610.647,1.295
610.919,1.289
611.191,1.283
611.463,1.287
611.735,1.297
612.007,1.295
612.278,1.288
612.550,1.298
612.822,1.303
613.094,1.308
613.365,1.309
613.637,1.309
613.909,1.313
614.180,1.311
614.452,1.314
614.723,1.302
614.995,1.298
615.266,1.293
615.538,1.298
615.809,1.314
616.081,1.306
616.352,1.295
616.623,1.292
616.895,1.294
617.166,1.295
617.437,1.286
617.709,1.283
617.980,1.289
618.251,1.294
618.522,1.304
618.793,1.310
619.065,1.321
619.336,1.331
619.607,1.303
619.878,1.302
620.149,1.326
620.420,1.325
620.691,1.304
620.962,1.303
621.232,1.315
621.503,1.321
621.774,1.305
622.045,1.302
622.316,1.300
622.586,1.309
622.857,1.322
623.128,1.327
623.398,1.317
623.669,1.315
623.940,1.306
624.210,1.295
624.481,1.293
624.751,1.303
625.021,1.295
625.292,1.291
625.562,1.291
625.833,1.294
626.103,1.287
626.373,1.282
626.643,1.282
626.914,1.289
627.184,1.295
627.454,1.305
627.724,1.308
627.994,1.302
628.264,1.303
628.534,1.305
628.804,1.297
629.074,1.297
629.344,1.306
629.614,1.309
629.884,1.306
630.154,1.294
630.424,1.282
630.693,1.272
630.963,1.263
631.233,1.263
631.502,1.269
631.772,1.277
632.041,1.289
632.311,1.295
632.581,1.295
632.850,1.294
633.119,1.286
633.389,1.276
633.658,1.274
633.928,1.272
634.197,1.294
634.466,1.309
634.735,1.314
635.004,1.316
635.274,1.298
635.543,1.297
635.812,1.298
636.081,1.295
636.350,1.295
636.619,1.297
636.888,1.300
637.157,1.304
637.426,1.309
637.694,1.316
637.963,1.302
638.232,1.295
638.501,1.291
638.769,1.291
639.038,1.304
639.307,1.315
639.575,1.313
639.844,1.317
640.112,1.298
640.381,1.287
640.649,1.278
640.917,1.293
641.186,1.297
641.454,1.295
641.722,1.304
641.991,1.300
642.259,1.297
642.527,1.280
642.795,1.282
643.063,1.291
643.331,1.281
643.599,1.280
643.867,1.291
644.135,1.295
644.403,1.286
644.671,1.297
644.939,1.291
645.206,1.304
645.474,1.308
645.742,1.299
646.009,1.284
646.277,1.280
646.545,1.292
646.812,1.294
647.080,1.308
647.347,1.311
647.615,1.308
647.882,1.298
648.149,1.280
648.417,1.276
648.684,1.277
648.951,1.286
649.219,1.302
649.486,1.303
649.753,1.295
650.020,1.302
650.287,1.300
650.554,1.294
650.821,1.292
651.088,1.287
651.355,1.286
651.622,1.302
651.889,1.293
652.155,1.284
652.422,1.284
652.689,1.294
652.956,1.303
653.222,1.303
653.489,1.313
653.755,1.330
654.022,1.319
654.288,1.295
654.555,1.292
654.821,1.297
655.088,1.293
655.354,1.302
655.620,1.306
655.887,1.314
656.153,1.313
656.419,1.311
656.685,1.311
656.951,1.309
657.217,1.311
657.483,1.306
657.749,1.300
658.015,1.302
658.281,1.297
658.547,1.292
658.813,1.284
659.079,1.283
659.345,1.288
659.610,1.287
659.876,1.288
660.142,1.283
660.407,1.278
660.673,1.286
660.939,1.291
661.204,1.287
661.470,1.277
661.735,1.276
662.000,1.280
662.266,1.282
662.531,1.281
662.796,1.284
663.062,1.293
663.327,1.287
663.592,1.283
663.857,1.284
664.122,1.283
664.388,1.277
664.653,1.281
664.918,1.284
665.183,1.289
665.448,1.289
665.712,1.300
665.977,1.304
666.242,1.305
666.507,1.293
666.772,1.267
667.037,1.266
667.301,1.264
667.566,1.264
667.831,1.274
668.095,1.281
668.360,1.283
668.624,1.293
668.889,1.283
669.153,1.288
669.418,1.283
669.682,1.282
669.946,1.286
670.211,1.286
670.475,1.298
670.739,1.303
671.004,1.304
671.268,1.316
671.532,1.350
671.796,1.357
672.060,1.304
672.324,1.309
672.588,1.319
672.852,1.324
673.116,1.337
673.380,1.387
673.644,1.370
673.908,1.287
674.172,1.287
674.436,1.287
674.700,1.288
674.963,1.295
675.227,1.300
675.491,1.294
675.754,1.276
676.018,1.272
676.282,1.274
676.545,1.283
676.809,1.284
677.072,1.281
677.336,1.278
677.599,1.280
677.863,1.284
678.126,1.275
678.389,1.286
678.653,1.310
678.916,1.300
679.179,1.289
679.442,1.278
679.706,1.283
679.969,1.287
680.232,1.297
680.495,1.308
680.758,1.315
681.021,1.309
681.284,1.297
681.547,1.284
681.810,1.284
682.073,1.291
682.336,1.309
682.599,1.303
682.862,1.297
683.125,1.300
683.388,1.305
683.651,1.300
683.913,1.295
684.176,1.286
684.439,1.280
684.702,1.271
684.964,1.265
685.227,1.259
685.490,1.276
685.752,1.300
686.015,1.311
686.277,1.297
686.540,1.284
686.802,1.283
687.065,1.270
687.327,1.278
687.590,1.288
687.852,1.282
688.115,1.267
688.377,1.260
688.639,1.266
688.902,1.274
689.164,1.276
689.426,1.284
689.689,1.299
689.951,1.293
690.213,1.284
690.475,1.293
690.737,1.294
691.000,1.288
691.262,1.281
691.524,1.288
691.786,1.294
692.048,1.310
692.310,1.311
692.572,1.282
692.834,1.267
693.096,1.274
693.358,1.277
693.620,1.295
693.882,1.305
694.144,1.302
694.406,1.291
694.668,1.278
694.930,1.287
695.192,1.289
695.453,1.293
695.715,1.293
695.977,1.294
696.239,1.281
696.501,1.274
696.762,1.281
697.024,1.288
697.286,1.281
697.548,1.277
697.809,1.288
698.071,1.276
698.333,1.271
698.594,1.270
698.856,1.278
699.118,1.288
699.379,1.288
699.641,1.287
699.902,1.300
700.164,1.303
700.426,1.297
700.687,1.291
700.949,1.289
701.210,1.293
701.472,1.287
701.733,1.275
701.995,1.267
702.256,1.287
702.518,1.287
702.779,1.278
703.041,1.284
703.302,1.303
703.563,1.308
703.825,1.280
704.086,1.281
704.348,1.283
704.609,1.282
704.871,1.289
705.132,1.304
705.393,1.302
705.655,1.282
705.916,1.287
706.177,1.294
706.439,1.292
706.700,1.295
706.961,1.282
707.223,1.281
707.484,1.282
707.745,1.265
708.007,1.269
708.268,1.263
708.529,1.243
708.790,1.238
709.052,1.220
709.313,1.220
709.574,1.233
709.835,1.241
710.097,1.241
710.358,1.234
710.619,1.208
710.881,1.201
711.142,1.208
711.403,1.205
711.664,1.203
711.926,1.208
712.187,1.200
712.448,1.210
712.709,1.223
712.970,1.228
713.232,1.230
713.493,1.228
713.754,1.230
714.015,1.230
714.277,1.245
714.538,1.250
714.799,1.252
715.060,1.254
715.322,1.244
715.583,1.236
715.844,1.233
716.105,1.223
716.367,1.220
716.628,1.222
716.889,1.226
717.150,1.225
717.411,1.223
717.673,1.209
717.934,1.219
718.195,1.221
718.457,1.219
718.718,1.212
718.979,1.210
719.240,1.216
719.502,1.216
719.763,1.227
720.024,1.234
720.286,1.231
720.547,1.226
720.808,1.219
721.069,1.217
721.331,1.223
721.592,1.233
721.853,1.241
722.115,1.232
722.376,1.234
722.638,1.242
722.899,1.241
723.160,1.238
723.422,1.228
723.683,1.228
723.944,1.230
724.206,1.232
724.467,1.223
724.729,1.222
724.990,1.231
725.252,1.242
725.513,1.239
725.775,1.222
726.036,1.204
726.298,1.208
726.559,1.217
726.821,1.223
727.082,1.222
727.344,1.227
727.605,1.230
727.867,1.227
728.128,1.214
728.390,1.215
728.652,1.220
728.913,1.237
729.175,1.256
729.436,1.242
729.698,1.239
729.960,1.250
730.221,1.244
730.483,1.230
730.745,1.216
731.007,1.221
731.268,1.216
731.530,1.217
731.792,1.214
732.054,1.216
732.315,1.223
732.577,1.228
732.839,1.226
733.101,1.209
733.363,1.210
733.625,1.212
733.887,1.214
734.149,1.216
734.411,1.217
734.673,1.220
734.935,1.227
735.197,1.221
735.459,1.222
735.721,1.232
735.983,1.223
736.245,1.216
736.507,1.216
736.769,1.230
737.031,1.231
737.293,1.216
737.555,1.205
737.818,1.200
738.080,1.210
738.342,1.203
738.604,1.204
738.867,1.214
739.129,1.215
739.391,1.209
739.654,1.208
739.916,1.210
740.178,1.216
740.441,1.222
740.703,1.233
740.966,1.223
741.228,1.212
741.491,1.214
741.753,1.212
742.016,1.217
742.278,1.219
742.541,1.211
742.804,1.220
743.066,1.228
743.329,1.231
743.592,1.228
743.854,1.219
744.117,1.227
744.380,1.232
744.643,1.225
744.905,1.219
745.168,1.217
745.431,1.216
745.694,1.211
745.957,1.209
746.220,1.209
746.483,1.203
746.746,1.209
747.009,1.214
747.272,1.230
747.535,1.244
