Wavelength (nm),Intensity BB3.3,,C:/Users/Brend/Desktop/LED Spectras v2/Blinds/-Interference/Spectrometer Data (Newer).sp,,,BB3.3,
379.792,1.648,,2018-07-02 14:38:56,,Integration Time,100 ms,
380.000,1.629,,Analyze Light,,Number of Scans to Average,25,
380.209,1.610,,,,Smoothing,0,
380.418,1.617
380.627,1.642
380.837,1.658
381.048,1.667
381.259,1.665
381.471,1.655
381.683,1.665
381.896,1.666
382.110,1.659
382.324,1.662
382.538,1.678
382.753,1.693
382.969,1.693
383.185,1.666
383.402,1.662
383.619,1.666
383.837,1.689
384.055,1.699
384.274,1.718
384.493,1.709
384.712,1.700
384.932,1.700
385.153,1.701
385.374,1.705
385.596,1.718
385.818,1.730
386.040,1.754
386.263,1.766
386.487,1.772
386.710,1.769
386.935,1.754
387.159,1.732
387.385,1.726
387.610,1.722
387.836,1.722
388.063,1.723
388.289,1.745
388.517,1.747
388.744,1.751
388.972,1.758
389.201,1.777
389.430,1.773
389.659,1.765
389.889,1.775
390.119,1.784
390.349,1.779
390.580,1.781
390.811,1.794
391.042,1.796
391.274,1.796
391.507,1.804
391.739,1.795
391.972,1.784
392.205,1.787
392.439,1.802
392.673,1.807
392.907,1.808
393.142,1.823
393.377,1.823
393.612,1.825
393.848,1.836
394.084,1.837
394.320,1.846
394.557,1.848
394.794,1.855
395.031,1.859
395.269,1.871
395.507,1.872
395.745,1.864
395.983,1.863
396.222,1.872
396.461,1.874
396.700,1.891
396.940,1.907
397.180,1.899
397.420,1.898
397.660,1.901
397.901,1.906
398.142,1.910
398.383,1.912
398.625,1.893
398.866,1.887
399.108,1.921
399.351,1.948
399.593,1.963
399.836,1.939
400.079,1.928
400.322,1.925
400.566,1.918
400.809,1.918
401.053,1.929
401.298,1.939
401.542,1.950
401.787,1.954
402.031,1.967
402.277,1.969
402.522,1.977
402.767,1.978
403.013,1.974
403.259,1.966
403.505,1.977
403.752,1.979
403.998,1.974
404.245,1.964
404.492,1.982
404.739,1.992
404.986,1.985
405.234,2.001
405.482,2.019
405.730,2.013
405.978,2.011
406.226,2.015
406.475,2.000
406.723,1.996
406.972,2.005
407.221,2.017
407.470,2.021
407.720,2.021
407.969,2.023
408.219,2.015
408.469,2.038
408.719,2.047
408.969,2.032
409.219,2.038
409.470,2.059
409.720,2.059
409.971,2.077
410.222,2.084
410.473,2.091
410.724,2.087
410.976,2.084
411.227,2.099
411.479,2.108
411.731,2.099
411.983,2.096
412.235,2.097
412.487,2.103
412.740,2.103
412.992,2.119
413.245,2.130
413.497,2.129
413.750,2.116
414.003,2.115
414.257,2.097
414.510,2.107
414.763,2.111
415.017,2.115
415.270,2.120
415.524,2.125
415.778,2.118
416.032,2.122
416.286,2.133
416.540,2.146
416.794,2.152
417.049,2.164
417.303,2.160
417.558,2.158
417.812,2.173
418.067,2.172
418.322,2.158
418.577,2.171
418.832,2.158
419.088,2.157
419.343,2.156
419.598,2.156
419.854,2.145
420.109,2.168
420.365,2.176
420.621,2.190
420.876,2.188
421.132,2.199
421.388,2.190
421.645,2.183
421.901,2.177
422.157,2.177
422.413,2.173
422.670,2.182
422.926,2.187
423.183,2.180
423.439,2.165
423.696,2.188
423.953,2.201
424.210,2.236
424.467,2.240
424.724,2.217
424.981,2.205
425.238,2.199
425.495,2.218
425.753,2.252
426.010,2.253
426.267,2.239
426.525,2.247
426.782,2.268
427.040,2.270
427.298,2.300
427.555,2.320
427.813,2.327
428.071,2.333
428.329,2.352
428.587,2.358
428.845,2.374
429.103,2.403
429.361,2.420
429.619,2.435
429.878,2.464
430.136,2.481
430.394,2.521
430.653,2.551
430.911,2.618
431.170,2.669
431.428,2.700
431.687,2.730
431.946,2.777
432.204,2.819
432.463,2.868
432.722,2.937
432.981,2.990
433.240,3.050
433.499,3.154
433.758,3.215
434.017,3.301
434.276,3.373
434.535,3.451
434.794,3.514
435.053,3.616
435.312,3.715
435.572,3.830
435.831,3.928
436.090,4.062
436.350,4.187
436.609,4.326
436.869,4.459
437.128,4.606
437.388,4.777
437.647,4.933
437.907,5.089
438.166,5.288
438.426,5.442
438.686,5.633
438.946,5.823
439.205,6.040
439.465,6.260
439.725,6.500
439.985,6.736
440.245,6.981
440.505,7.205
440.765,7.471
441.025,7.733
441.285,8.033
441.545,8.300
441.805,8.607
442.065,8.927
442.325,9.259
442.585,9.601
442.846,9.988
443.106,10.346
443.366,10.752
443.626,11.167
443.887,11.563
444.147,11.985
444.407,12.433
444.668,12.894
444.928,13.370
445.189,13.856
445.449,14.425
445.710,14.941
445.970,15.500
446.231,16.117
446.491,16.724
446.752,17.395
447.012,18.060
447.273,18.742
447.534,19.498
447.794,20.236
448.055,21.007
448.316,21.772
448.577,22.632
448.837,23.512
449.098,24.430
449.359,25.405
449.620,26.389
449.881,27.368
450.142,28.405
450.403,29.426
450.664,30.537
450.924,31.677
451.185,32.823
451.446,34.005
451.707,35.250
451.969,36.479
452.230,37.719
452.491,38.962
452.752,40.259
453.013,41.514
453.274,42.765
453.535,44.017
453.796,45.268
454.058,46.466
454.319,47.675
454.580,48.847
454.841,49.946
455.103,51.034
455.364,52.110
455.625,53.096
455.887,54.085
456.148,54.987
456.409,55.808
456.671,56.588
456.932,57.234
457.194,57.816
457.455,58.349
457.716,58.752
457.978,59.069
458.239,59.292
458.501,59.433
458.763,59.509
459.024,59.486
459.286,59.333
459.547,59.045
459.809,58.704
460.071,58.273
460.332,57.711
460.594,57.095
460.856,56.410
461.117,55.638
461.379,54.804
461.641,53.903
461.903,52.911
462.164,51.937
462.426,50.889
462.688,49.786
462.950,48.666
463.212,47.504
463.474,46.365
463.736,45.165
463.998,43.975
464.260,42.876
464.522,41.762
464.784,40.686
465.046,39.627
465.308,38.593
465.570,37.653
465.832,36.713
466.094,35.792
466.356,34.949
466.618,34.128
466.880,33.373
467.142,32.571
467.405,31.867
467.667,31.209
467.929,30.601
468.191,30.041
468.454,29.472
468.716,28.936
468.978,28.428
469.241,27.856
469.503,27.373
469.765,26.919
470.028,26.443
470.290,26.001
470.552,25.621
470.815,25.238
471.077,24.826
471.340,24.438
471.602,24.074
471.865,23.698
472.128,23.320
472.390,22.939
472.653,22.593
472.915,22.201
473.178,21.804
473.441,21.435
473.703,21.041
473.966,20.629
474.229,20.224
474.492,19.799
474.755,19.391
475.017,18.957
475.280,18.571
475.543,18.152
475.806,17.752
476.069,17.303
476.332,16.858
476.595,16.418
476.858,16.026
477.121,15.611
477.384,15.187
477.647,14.790
477.910,14.404
478.173,13.995
478.436,13.633
478.699,13.260
478.962,12.928
479.226,12.557
479.489,12.226
479.752,11.884
480.015,11.564
480.279,11.210
480.542,10.882
480.805,10.579
481.069,10.298
481.332,9.995
481.595,9.715
481.859,9.441
482.122,9.232
482.386,8.987
482.649,8.744
482.913,8.523
483.177,8.304
483.440,8.088
483.704,7.878
483.967,7.668
484.231,7.500
484.495,7.334
484.759,7.188
485.022,7.019
485.286,6.853
485.550,6.684
485.814,6.530
486.078,6.336
486.342,6.189
486.606,6.045
486.869,5.935
487.133,5.792
487.397,5.675
487.662,5.551
487.926,5.442
488.190,5.294
488.454,5.199
488.718,5.070
488.982,4.960
489.246,4.818
489.511,4.714
489.775,4.572
490.039,4.473
490.304,4.379
490.568,4.269
490.832,4.153
491.097,4.067
491.361,3.983
491.626,3.904
491.890,3.797
492.155,3.710
492.419,3.630
492.684,3.565
492.949,3.443
493.213,3.362
493.478,3.297
493.743,3.230
494.008,3.134
494.272,3.035
494.537,2.949
494.802,2.891
495.067,2.833
495.332,2.799
495.597,2.740
495.862,2.697
496.127,2.636
496.392,2.590
496.657,2.529
496.922,2.475
497.187,2.430
497.452,2.399
497.718,2.361
497.983,2.340
498.248,2.297
498.513,2.262
498.779,2.224
499.044,2.210
499.310,2.183
499.575,2.137
499.841,2.110
500.106,2.093
500.372,2.068
500.637,2.042
500.903,2.035
501.168,2.034
501.434,1.997
501.700,1.969
501.966,1.932
502.231,1.920
502.497,1.902
502.763,1.888
503.029,1.860
503.295,1.833
503.561,1.822
503.827,1.817
504.093,1.813
504.359,1.802
504.625,1.792
504.891,1.783
505.157,1.764
505.423,1.764
505.690,1.737
505.956,1.704
506.222,1.703
506.489,1.716
506.755,1.723
507.021,1.728
507.288,1.724
507.554,1.727
507.821,1.707
508.087,1.689
508.354,1.685
508.621,1.688
508.887,1.667
509.154,1.652
509.421,1.652
509.687,1.637
509.954,1.613
510.221,1.610
510.488,1.610
510.755,1.621
511.022,1.617
511.289,1.614
511.556,1.589
511.823,1.593
512.090,1.595
512.357,1.597
512.624,1.578
512.891,1.585
513.159,1.570
513.426,1.547
513.693,1.530
513.960,1.540
514.228,1.536
514.495,1.540
514.763,1.540
515.030,1.530
515.298,1.506
515.565,1.503
515.833,1.519
516.100,1.510
516.368,1.499
516.636,1.495
516.904,1.487
517.171,1.490
517.439,1.481
517.707,1.477
517.975,1.475
518.243,1.477
518.511,1.480
518.779,1.465
519.047,1.443
519.315,1.458
519.583,1.454
519.851,1.435
520.119,1.441
520.387,1.448
520.656,1.449
520.924,1.452
521.192,1.452
521.461,1.449
521.729,1.453
521.997,1.458
522.266,1.449
522.534,1.450
522.803,1.453
523.071,1.449
523.340,1.434
523.609,1.420
523.877,1.418
524.146,1.427
524.415,1.433
524.684,1.434
524.952,1.433
525.221,1.419
525.490,1.420
525.759,1.439
526.028,1.437
526.297,1.426
526.566,1.414
526.835,1.411
527.104,1.406
527.373,1.423
527.642,1.416
527.912,1.404
528.181,1.397
528.450,1.406
528.719,1.415
528.989,1.425
529.258,1.441
529.528,1.437
529.797,1.412
530.067,1.410
530.336,1.415
530.606,1.404
530.875,1.395
531.145,1.396
531.414,1.399
531.684,1.406
531.954,1.403
532.224,1.388
532.493,1.373
532.763,1.365
533.033,1.378
533.303,1.385
533.573,1.396
533.843,1.395
534.113,1.382
534.383,1.381
534.653,1.374
534.923,1.380
535.193,1.395
535.463,1.400
535.733,1.407
536.004,1.404
536.274,1.407
536.544,1.399
536.814,1.381
537.085,1.384
537.355,1.380
537.626,1.387
537.896,1.393
538.166,1.393
538.437,1.385
538.707,1.376
538.978,1.374
539.249,1.382
539.519,1.382
539.790,1.368
540.061,1.354
540.331,1.366
540.602,1.391
540.873,1.399
541.144,1.400
541.414,1.400
541.685,1.387
541.956,1.378
542.227,1.376
542.498,1.373
542.769,1.361
543.040,1.359
543.311,1.370
543.582,1.373
543.853,1.378
544.124,1.381
544.396,1.388
544.667,1.391
544.938,1.382
545.209,1.374
545.480,1.346
545.752,1.361
546.023,1.372
546.294,1.372
546.566,1.361
546.837,1.359
547.109,1.355
547.380,1.359
547.652,1.361
547.923,1.357
548.195,1.363
548.466,1.380
548.738,1.395
549.009,1.395
549.281,1.380
549.553,1.369
549.824,1.355
550.096,1.343
550.368,1.357
550.640,1.358
550.911,1.355
551.183,1.361
551.455,1.388
551.727,1.401
551.999,1.392
552.271,1.370
552.543,1.355
552.815,1.357
553.087,1.366
553.359,1.381
553.631,1.385
553.903,1.374
554.175,1.369
554.447,1.384
554.719,1.387
554.991,1.381
555.263,1.384
555.535,1.384
555.808,1.373
556.080,1.372
556.352,1.365
556.624,1.368
556.897,1.372
557.169,1.363
557.441,1.361
557.714,1.351
557.986,1.346
558.258,1.361
558.531,1.359
558.803,1.370
559.076,1.372
559.348,1.372
559.621,1.361
559.893,1.369
560.166,1.374
560.438,1.363
560.711,1.361
560.983,1.358
561.256,1.349
561.528,1.349
561.801,1.361
562.074,1.372
562.346,1.389
562.619,1.397
562.892,1.384
563.164,1.363
563.437,1.365
563.710,1.368
563.983,1.357
564.255,1.347
564.528,1.365
564.801,1.396
565.074,1.396
565.346,1.380
565.619,1.359
565.892,1.368
566.165,1.381
566.438,1.369
566.711,1.355
566.984,1.363
567.257,1.363
567.529,1.359
567.802,1.370
568.075,1.384
568.348,1.378
568.621,1.370
568.894,1.369
569.167,1.366
569.440,1.368
569.713,1.358
569.986,1.349
570.259,1.361
570.532,1.361
570.805,1.365
571.078,1.363
571.351,1.355
571.625,1.366
571.898,1.370
572.171,1.355
572.444,1.351
572.717,1.354
572.990,1.370
573.263,1.373
573.536,1.357
573.809,1.346
574.083,1.336
574.356,1.339
574.629,1.354
574.902,1.365
575.175,1.357
575.448,1.344
575.721,1.334
575.995,1.338
576.268,1.343
576.541,1.335
576.814,1.355
577.087,1.366
577.361,1.368
577.634,1.358
577.907,1.351
578.180,1.338
578.453,1.339
578.727,1.344
579.000,1.349
579.273,1.342
579.546,1.347
579.820,1.354
580.093,1.359
580.366,1.353
580.639,1.344
580.913,1.335
581.186,1.344
581.459,1.342
581.732,1.346
582.005,1.336
582.279,1.335
582.552,1.336
582.825,1.344
583.098,1.347
583.372,1.353
583.645,1.357
583.918,1.354
584.191,1.349
584.464,1.342
584.738,1.335
585.011,1.335
585.284,1.343
585.557,1.338
585.831,1.339
586.104,1.357
586.377,1.373
586.650,1.389
586.923,1.377
587.196,1.368
587.470,1.368
587.743,1.355
588.016,1.350
588.289,1.353
588.562,1.366
588.835,1.374
589.109,1.363
589.382,1.351
589.655,1.340
589.928,1.334
590.201,1.332
590.474,1.340
590.747,1.359
591.020,1.369
591.293,1.372
591.567,1.363
591.840,1.346
592.113,1.339
592.386,1.343
592.659,1.331
592.932,1.327
593.205,1.338
593.478,1.351
593.751,1.350
594.024,1.344
594.297,1.343
594.570,1.330
594.843,1.334
595.116,1.349
595.389,1.346
595.662,1.344
595.934,1.347
596.207,1.351
596.480,1.365
596.753,1.363
597.026,1.359
597.299,1.353
597.572,1.357
597.844,1.349
598.117,1.336
598.390,1.328
598.663,1.331
598.936,1.332
599.208,1.344
599.481,1.355
599.754,1.365
600.026,1.358
600.299,1.331
600.572,1.324
600.844,1.335
601.117,1.327
601.390,1.317
601.662,1.325
601.935,1.330
602.207,1.325
602.480,1.342
602.752,1.346
603.025,1.336
603.297,1.328
603.570,1.332
603.842,1.351
604.115,1.362
604.387,1.351
604.660,1.349
604.932,1.343
605.204,1.346
605.477,1.347
605.749,1.362
606.021,1.366
606.294,1.368
606.566,1.350
606.838,1.332
607.110,1.342
607.383,1.344
607.655,1.347
607.927,1.361
608.199,1.361
608.471,1.370
608.743,1.361
609.015,1.347
609.287,1.340
609.559,1.344
609.831,1.340
610.103,1.335
610.375,1.325
610.647,1.324
610.919,1.323
611.191,1.327
611.463,1.338
611.735,1.347
612.007,1.339
612.278,1.335
612.550,1.331
612.822,1.336
613.094,1.336
613.365,1.336
613.637,1.328
613.909,1.339
614.180,1.340
614.452,1.336
614.723,1.330
614.995,1.321
615.266,1.321
615.538,1.336
615.809,1.353
616.081,1.351
616.352,1.330
616.623,1.331
616.895,1.336
617.166,1.335
617.437,1.324
617.709,1.328
617.980,1.336
618.251,1.338
618.522,1.343
618.793,1.355
619.065,1.372
619.336,1.372
619.607,1.340
619.878,1.331
620.149,1.351
620.420,1.358
620.691,1.347
620.962,1.349
621.232,1.368
621.503,1.370
621.774,1.344
622.045,1.336
622.316,1.344
622.586,1.357
622.857,1.359
623.128,1.363
623.398,1.351
623.669,1.347
623.940,1.339
624.210,1.330
624.481,1.330
624.751,1.354
625.021,1.351
625.292,1.336
625.562,1.325
625.833,1.331
626.103,1.317
626.373,1.316
626.643,1.312
626.914,1.319
627.184,1.323
627.454,1.328
627.724,1.325
627.994,1.331
628.264,1.335
628.534,1.331
628.804,1.323
629.074,1.324
629.344,1.338
629.614,1.338
629.884,1.338
630.154,1.327
630.424,1.315
630.693,1.309
630.963,1.297
631.233,1.290
631.502,1.289
631.772,1.316
632.041,1.335
632.311,1.335
632.581,1.338
632.850,1.339
633.119,1.323
633.389,1.302
633.658,1.304
633.928,1.317
634.197,1.331
634.466,1.332
634.735,1.338
635.004,1.336
635.274,1.331
635.543,1.328
635.812,1.328
636.081,1.330
636.350,1.334
636.619,1.334
636.888,1.338
637.157,1.336
637.426,1.339
637.694,1.350
637.963,1.336
638.232,1.323
638.501,1.319
638.769,1.309
639.038,1.328
639.307,1.339
639.575,1.350
639.844,1.354
640.112,1.331
640.381,1.321
640.649,1.321
640.917,1.323
641.186,1.332
641.454,1.335
641.722,1.346
641.991,1.342
642.259,1.336
642.527,1.323
642.795,1.321
643.063,1.323
643.331,1.304
643.599,1.300
643.867,1.305
644.135,1.320
644.403,1.330
644.671,1.340
644.939,1.331
645.206,1.339
645.474,1.343
645.742,1.336
646.009,1.320
646.277,1.311
646.545,1.315
646.812,1.317
647.080,1.335
647.347,1.344
647.615,1.343
647.882,1.335
648.149,1.321
648.417,1.312
648.684,1.313
648.951,1.327
649.219,1.338
649.486,1.340
649.753,1.321
650.020,1.315
650.287,1.306
650.554,1.304
650.821,1.309
651.088,1.315
651.355,1.319
651.622,1.335
651.889,1.327
652.155,1.324
652.422,1.317
652.689,1.316
652.956,1.330
653.222,1.334
653.489,1.350
653.755,1.368
654.022,1.353
654.288,1.336
654.555,1.334
654.821,1.339
655.088,1.343
655.354,1.354
655.620,1.350
655.887,1.353
656.153,1.349
656.419,1.354
656.685,1.353
656.951,1.343
657.217,1.342
657.483,1.336
657.749,1.332
658.015,1.336
658.281,1.340
658.547,1.334
658.813,1.312
659.079,1.312
659.345,1.309
659.610,1.306
659.876,1.309
660.142,1.312
660.407,1.312
660.673,1.312
660.939,1.324
661.204,1.319
661.470,1.309
661.735,1.313
662.000,1.317
662.266,1.319
662.531,1.315
662.796,1.316
663.062,1.320
663.327,1.309
663.592,1.306
663.857,1.319
664.122,1.325
664.388,1.325
664.653,1.332
664.918,1.328
665.183,1.325
665.448,1.325
665.712,1.336
665.977,1.335
666.242,1.343
666.507,1.340
666.772,1.308
667.037,1.308
667.301,1.311
667.566,1.305
667.831,1.304
668.095,1.316
668.360,1.327
668.624,1.336
668.889,1.331
669.153,1.343
669.418,1.331
669.682,1.331
669.946,1.330
670.211,1.331
670.475,1.332
670.739,1.330
671.004,1.344
671.268,1.366
671.532,1.404
671.796,1.400
672.060,1.347
672.324,1.355
672.588,1.362
672.852,1.359
673.116,1.380
673.380,1.433
673.644,1.426
673.908,1.346
674.172,1.334
674.436,1.332
674.700,1.335
674.963,1.336
675.227,1.340
675.491,1.336
675.754,1.317
676.018,1.320
676.282,1.320
676.545,1.328
676.809,1.323
677.072,1.315
677.336,1.312
677.599,1.311
677.863,1.321
678.126,1.313
678.389,1.316
678.653,1.342
678.916,1.332
679.179,1.323
679.442,1.313
679.706,1.324
679.969,1.325
680.232,1.321
680.495,1.336
680.758,1.344
681.021,1.332
681.284,1.321
681.547,1.321
681.810,1.321
682.073,1.339
682.336,1.357
682.599,1.349
682.862,1.336
683.125,1.342
683.388,1.344
683.651,1.343
683.913,1.343
684.176,1.330
684.439,1.316
684.702,1.311
684.964,1.306
685.227,1.305
685.490,1.319
685.752,1.331
686.015,1.343
686.277,1.336
686.540,1.324
686.802,1.312
687.065,1.311
687.327,1.323
687.590,1.325
687.852,1.323
688.115,1.316
688.377,1.311
688.639,1.312
688.902,1.311
689.164,1.313
689.426,1.312
689.689,1.328
689.951,1.324
690.213,1.319
690.475,1.335
690.737,1.334
691.000,1.319
691.262,1.325
691.524,1.338
691.786,1.344
692.048,1.351
692.310,1.349
692.572,1.330
692.834,1.311
693.096,1.311
693.358,1.320
693.620,1.330
693.882,1.332
694.144,1.328
694.406,1.324
694.668,1.311
694.930,1.316
695.192,1.312
695.453,1.312
695.715,1.317
695.977,1.319
696.239,1.313
696.501,1.302
696.762,1.311
697.024,1.316
697.286,1.309
697.548,1.305
697.809,1.315
698.071,1.311
698.333,1.297
698.594,1.302
698.856,1.309
699.118,1.313
699.379,1.319
699.641,1.323
699.902,1.332
700.164,1.336
700.426,1.319
700.687,1.321
700.949,1.317
701.210,1.316
701.472,1.311
701.733,1.309
701.995,1.313
702.256,1.320
702.518,1.313
702.779,1.311
703.041,1.313
703.302,1.331
703.563,1.334
703.825,1.319
704.086,1.313
704.348,1.313
704.609,1.311
704.871,1.312
705.132,1.324
705.393,1.321
705.655,1.306
705.916,1.308
706.177,1.317
706.439,1.316
706.700,1.321
706.961,1.316
707.223,1.313
707.484,1.317
707.745,1.293
708.007,1.293
708.268,1.287
708.529,1.268
708.790,1.268
709.052,1.262
709.313,1.259
709.574,1.273
709.835,1.273
710.097,1.271
710.358,1.258
710.619,1.245
710.881,1.237
711.142,1.241
711.403,1.248
711.664,1.245
711.926,1.237
712.187,1.232
712.448,1.245
712.709,1.259
712.970,1.259
713.232,1.263
713.493,1.262
713.754,1.268
714.015,1.260
714.277,1.268
714.538,1.271
714.799,1.289
715.060,1.301
715.322,1.286
715.583,1.278
715.844,1.271
716.105,1.262
716.367,1.249
716.628,1.251
716.889,1.263
717.150,1.259
717.411,1.249
717.673,1.241
717.934,1.249
718.195,1.251
718.457,1.252
718.718,1.247
718.979,1.236
719.240,1.243
719.502,1.251
719.763,1.251
720.024,1.260
720.286,1.258
720.547,1.255
720.808,1.240
721.069,1.239
721.331,1.244
721.592,1.258
721.853,1.271
722.115,1.263
722.376,1.270
722.638,1.268
722.899,1.264
723.160,1.264
723.422,1.259
723.683,1.255
723.944,1.255
724.206,1.266
724.467,1.259
724.729,1.259
724.990,1.255
725.252,1.266
725.513,1.262
725.775,1.243
726.036,1.230
726.298,1.241
726.559,1.245
726.821,1.254
727.082,1.244
727.344,1.245
727.605,1.249
727.867,1.251
728.128,1.243
728.390,1.249
728.652,1.254
728.913,1.278
729.175,1.293
729.436,1.282
729.698,1.278
729.960,1.279
730.221,1.259
730.483,1.244
730.745,1.230
731.007,1.230
731.268,1.235
731.530,1.239
731.792,1.254
732.054,1.252
732.315,1.249
732.577,1.254
732.839,1.258
733.101,1.241
733.363,1.243
733.625,1.239
733.887,1.240
734.149,1.244
734.411,1.239
734.673,1.245
734.935,1.249
735.197,1.249
735.459,1.244
735.721,1.260
735.983,1.256
736.245,1.237
736.507,1.233
736.769,1.252
737.031,1.255
737.293,1.248
737.555,1.236
737.818,1.229
738.080,1.229
738.342,1.232
738.604,1.229
738.867,1.232
739.129,1.224
739.391,1.225
739.654,1.226
739.916,1.230
740.178,1.237
740.441,1.248
740.703,1.262
740.966,1.249
741.228,1.243
741.491,1.236
741.753,1.233
742.016,1.251
742.278,1.249
742.541,1.241
742.804,1.247
743.066,1.247
743.329,1.256
743.592,1.256
743.854,1.248
744.117,1.248
744.380,1.263
744.643,1.259
744.905,1.248
745.168,1.251
745.431,1.248
745.694,1.233
745.957,1.237
746.220,1.239
746.483,1.233
746.746,1.235
747.009,1.235
747.272,1.251
