Wavelength (nm),Intensity BB6.2,,C:/Users/Brend/Desktop/LED Spectras v2/Blinds/-Interference/Spectrometer Data (Newer).sp,,,BB6.2,
379.792,1.651,,2018-07-02 14:37:47,,Integration Time,100 ms,
380.000,1.636,,Analyze Light,,Number of Scans to Average,25,
380.209,1.635,,,,Smoothing,0,
380.418,1.643
380.627,1.652
380.837,1.657
381.048,1.668
381.259,1.663
381.471,1.661
381.683,1.666
381.896,1.672
382.110,1.673
382.324,1.679
382.538,1.696
382.753,1.714
382.969,1.711
383.185,1.689
383.402,1.686
383.619,1.686
383.837,1.690
384.055,1.695
384.274,1.712
384.493,1.726
384.712,1.716
384.932,1.719
385.153,1.728
385.374,1.729
385.596,1.734
385.818,1.737
386.040,1.753
386.263,1.767
386.487,1.778
386.710,1.768
386.935,1.760
387.159,1.749
387.385,1.759
387.610,1.757
387.836,1.753
388.063,1.761
388.289,1.763
388.517,1.760
388.744,1.765
388.972,1.762
389.201,1.779
389.430,1.777
389.659,1.772
389.889,1.781
390.119,1.796
390.349,1.793
390.580,1.798
390.811,1.806
391.042,1.804
391.274,1.805
391.507,1.816
391.739,1.814
391.972,1.805
392.205,1.807
392.439,1.818
392.673,1.830
392.907,1.835
393.142,1.842
393.377,1.846
393.612,1.846
393.848,1.855
394.084,1.855
394.320,1.859
394.557,1.862
394.794,1.872
395.031,1.874
395.269,1.885
395.507,1.889
395.745,1.887
395.983,1.880
396.222,1.885
396.461,1.898
396.700,1.916
396.940,1.935
397.180,1.937
397.420,1.935
397.660,1.924
397.901,1.917
398.142,1.916
398.383,1.919
398.625,1.912
398.866,1.913
399.108,1.939
399.351,1.966
399.593,1.990
399.836,1.971
400.079,1.960
400.322,1.946
400.566,1.944
400.809,1.949
401.053,1.947
401.298,1.950
401.542,1.952
401.787,1.965
402.031,1.977
402.277,1.976
402.522,1.995
402.767,2.004
403.013,2.014
403.259,2.001
403.505,2.001
403.752,1.999
403.998,1.997
404.245,1.999
404.492,2.023
404.739,2.019
404.986,2.014
405.234,2.025
405.482,2.030
405.730,2.026
405.978,2.031
406.226,2.043
406.475,2.028
406.723,2.019
406.972,2.031
407.221,2.044
407.470,2.049
407.720,2.056
407.969,2.056
408.219,2.040
408.469,2.066
408.719,2.077
408.969,2.073
409.219,2.069
409.470,2.083
409.720,2.080
409.971,2.093
410.222,2.092
410.473,2.088
410.724,2.088
410.976,2.092
411.227,2.103
411.479,2.116
411.731,2.113
411.983,2.109
412.235,2.107
412.487,2.118
412.740,2.115
412.992,2.126
413.245,2.127
413.497,2.131
413.750,2.125
414.003,2.125
414.257,2.119
414.510,2.108
414.763,2.121
415.017,2.136
415.270,2.134
415.524,2.138
415.778,2.132
416.032,2.137
416.286,2.144
416.540,2.156
416.794,2.152
417.049,2.159
417.303,2.146
417.558,2.137
417.812,2.152
418.067,2.153
418.322,2.152
418.577,2.154
418.832,2.156
419.088,2.156
419.343,2.144
419.598,2.159
419.854,2.147
420.109,2.162
420.365,2.162
420.621,2.163
420.876,2.156
421.132,2.172
421.388,2.173
421.645,2.168
421.901,2.177
422.157,2.180
422.413,2.173
422.670,2.181
422.926,2.169
423.183,2.164
423.439,2.159
423.696,2.184
423.953,2.203
424.210,2.234
424.467,2.247
424.724,2.232
424.981,2.225
425.238,2.227
425.495,2.241
425.753,2.264
426.010,2.264
426.267,2.275
426.525,2.285
426.782,2.308
427.040,2.326
427.298,2.354
427.555,2.380
427.813,2.400
428.071,2.408
428.329,2.448
428.587,2.473
428.845,2.500
429.103,2.540
429.361,2.575
429.619,2.604
429.878,2.644
430.136,2.681
430.394,2.737
430.653,2.772
430.911,2.836
431.170,2.898
431.428,2.968
431.687,3.023
431.946,3.097
432.204,3.170
432.463,3.242
432.722,3.342
432.981,3.418
433.240,3.497
433.499,3.610
433.758,3.696
434.017,3.816
434.276,3.925
434.535,4.026
434.794,4.126
435.053,4.260
435.312,4.385
435.572,4.540
435.831,4.685
436.090,4.860
436.350,5.039
436.609,5.206
436.869,5.377
437.128,5.565
437.388,5.738
437.647,5.930
437.907,6.127
438.166,6.373
438.426,6.572
438.686,6.789
438.946,7.009
439.205,7.260
439.465,7.516
439.725,7.837
439.985,8.115
440.245,8.407
440.505,8.684
440.765,9.010
441.025,9.340
441.285,9.684
441.545,10.022
441.805,10.398
442.065,10.766
442.325,11.179
442.585,11.571
442.846,12.021
443.106,12.486
443.366,13.010
443.626,13.505
443.887,14.024
444.147,14.591
444.407,15.152
444.668,15.759
444.928,16.398
445.189,17.065
445.449,17.784
445.710,18.487
445.970,19.244
446.231,20.021
446.491,20.872
446.752,21.723
447.012,22.606
447.273,23.540
447.534,24.518
447.794,25.535
448.055,26.559
448.316,27.641
448.577,28.786
448.837,29.918
449.098,31.088
449.359,32.318
449.620,33.551
449.881,34.745
450.142,35.992
450.403,37.228
450.664,38.547
450.924,39.883
451.185,41.212
451.446,42.510
451.707,43.813
451.969,45.080
452.230,46.373
452.491,47.645
452.752,48.865
453.013,49.995
453.274,51.136
453.535,52.205
453.796,53.169
454.058,54.060
454.319,54.906
454.580,55.660
454.841,56.331
455.103,56.912
455.364,57.383
455.625,57.757
455.887,58.081
456.148,58.278
456.409,58.368
456.671,58.406
456.932,58.285
457.194,58.034
457.455,57.689
457.716,57.285
457.978,56.808
458.239,56.213
458.501,55.587
458.763,54.921
459.024,54.131
459.286,53.319
459.547,52.395
459.809,51.425
460.071,50.412
460.332,49.362
460.594,48.313
460.856,47.267
461.117,46.200
461.379,45.177
461.641,44.166
461.903,43.152
462.164,42.123
462.426,41.122
462.688,40.141
462.950,39.191
463.212,38.227
463.474,37.302
463.736,36.414
463.998,35.543
464.260,34.804
464.522,34.077
464.784,33.406
465.046,32.703
465.308,32.062
465.570,31.491
465.832,30.933
466.094,30.414
466.356,29.899
466.618,29.369
466.880,28.873
467.142,28.368
467.405,27.863
467.667,27.422
467.929,27.034
468.191,26.616
468.454,26.189
468.716,25.779
468.978,25.364
469.241,24.877
469.503,24.432
469.765,24.055
470.028,23.663
470.290,23.225
470.552,22.821
470.815,22.426
471.077,22.032
471.340,21.602
471.602,21.213
471.865,20.824
472.128,20.420
472.390,19.968
472.653,19.567
472.915,19.150
473.178,18.709
473.441,18.295
473.703,17.900
473.966,17.483
474.229,17.073
474.492,16.655
474.755,16.242
475.017,15.831
475.280,15.432
475.543,15.057
475.806,14.696
476.069,14.306
476.332,13.895
476.595,13.513
476.858,13.183
477.121,12.816
477.384,12.464
477.647,12.134
477.910,11.833
478.173,11.533
478.436,11.241
478.699,10.909
478.962,10.636
479.226,10.351
479.489,10.117
479.752,9.852
480.015,9.621
480.279,9.358
480.542,9.126
480.805,8.899
481.069,8.687
481.332,8.457
481.595,8.268
481.859,8.083
482.122,7.937
482.386,7.726
482.649,7.538
482.913,7.348
483.177,7.180
483.440,6.995
483.704,6.841
483.967,6.693
484.231,6.568
484.495,6.422
484.759,6.294
485.022,6.134
485.286,5.984
485.550,5.833
485.814,5.712
486.078,5.537
486.342,5.432
486.606,5.310
486.869,5.197
487.133,5.075
487.397,4.986
487.662,4.867
487.926,4.764
488.190,4.620
488.454,4.512
488.718,4.398
488.982,4.297
489.246,4.176
489.511,4.081
489.775,3.964
490.039,3.876
490.304,3.801
490.568,3.696
490.832,3.582
491.097,3.523
491.361,3.451
491.626,3.370
491.890,3.293
492.155,3.228
492.419,3.140
492.684,3.090
492.949,3.000
493.213,2.930
493.478,2.865
493.743,2.816
494.008,2.733
494.272,2.666
494.537,2.605
494.802,2.570
495.067,2.530
495.332,2.508
495.597,2.474
495.862,2.439
496.127,2.387
496.392,2.346
496.657,2.310
496.922,2.256
497.187,2.224
497.452,2.210
497.718,2.188
497.983,2.172
498.248,2.132
498.513,2.103
498.779,2.081
499.044,2.083
499.310,2.066
499.575,2.025
499.841,2.002
500.106,1.993
500.372,1.980
500.637,1.957
500.903,1.942
501.168,1.948
501.434,1.916
501.700,1.882
501.966,1.860
502.231,1.857
502.497,1.841
502.763,1.827
503.029,1.799
503.295,1.785
503.561,1.775
503.827,1.764
504.093,1.756
504.359,1.747
504.625,1.742
504.891,1.741
505.157,1.723
505.423,1.719
505.690,1.698
505.956,1.680
506.222,1.677
506.489,1.672
506.755,1.684
507.021,1.697
507.288,1.686
507.554,1.680
507.821,1.666
508.087,1.646
508.354,1.650
508.621,1.660
508.887,1.643
509.154,1.631
509.421,1.631
509.687,1.616
509.954,1.597
510.221,1.595
510.488,1.581
510.755,1.586
511.022,1.598
511.289,1.593
511.556,1.570
511.823,1.567
512.090,1.569
512.357,1.582
512.624,1.569
512.891,1.562
513.159,1.547
513.426,1.527
513.693,1.522
513.960,1.523
514.228,1.528
514.495,1.531
514.763,1.528
515.030,1.516
515.298,1.505
515.565,1.501
515.833,1.504
516.100,1.497
516.368,1.484
516.636,1.480
516.904,1.476
517.171,1.485
517.439,1.478
517.707,1.480
517.975,1.485
518.243,1.487
518.511,1.492
518.779,1.479
519.047,1.457
519.315,1.471
519.583,1.465
519.851,1.450
520.119,1.446
520.387,1.448
520.656,1.436
520.924,1.439
521.192,1.443
521.461,1.443
521.729,1.445
521.997,1.453
522.266,1.446
522.534,1.444
522.803,1.450
523.071,1.453
523.340,1.447
523.609,1.425
523.877,1.411
524.146,1.416
524.415,1.417
524.684,1.423
524.952,1.426
525.221,1.413
525.490,1.416
525.759,1.436
526.028,1.429
526.297,1.415
526.566,1.401
526.835,1.402
527.104,1.404
527.373,1.409
527.642,1.414
527.912,1.397
528.181,1.390
528.450,1.402
528.719,1.404
528.989,1.412
529.258,1.426
529.528,1.422
529.797,1.411
530.067,1.410
530.336,1.411
530.606,1.406
530.875,1.397
531.145,1.393
531.414,1.392
531.684,1.404
531.954,1.412
532.224,1.400
532.493,1.389
532.763,1.368
533.033,1.374
533.303,1.388
533.573,1.395
533.843,1.389
534.113,1.370
534.383,1.373
534.653,1.362
534.923,1.372
535.193,1.388
535.463,1.384
535.733,1.397
536.004,1.404
536.274,1.402
536.544,1.394
536.814,1.380
537.085,1.377
537.355,1.385
537.626,1.399
537.896,1.401
538.166,1.394
538.437,1.388
538.707,1.375
538.978,1.368
539.249,1.372
539.519,1.388
539.790,1.380
540.061,1.358
540.331,1.368
540.602,1.384
540.873,1.387
541.144,1.384
541.414,1.379
541.685,1.376
541.956,1.375
542.227,1.377
542.498,1.377
542.769,1.368
543.040,1.369
543.311,1.381
543.582,1.391
543.853,1.390
544.124,1.382
544.396,1.389
544.667,1.398
544.938,1.394
545.209,1.382
545.480,1.349
545.752,1.360
546.023,1.374
546.294,1.382
546.566,1.370
546.837,1.369
547.109,1.362
547.380,1.358
547.652,1.351
547.923,1.342
548.195,1.353
548.466,1.371
548.738,1.386
549.009,1.392
549.281,1.382
549.553,1.379
549.824,1.363
550.096,1.347
550.368,1.353
550.640,1.364
550.911,1.356
551.183,1.368
551.455,1.394
551.727,1.411
551.999,1.401
552.271,1.385
552.543,1.375
552.815,1.376
553.087,1.375
553.359,1.389
553.631,1.387
553.903,1.377
554.175,1.379
554.447,1.395
554.719,1.397
554.991,1.389
555.263,1.384
555.535,1.381
555.808,1.367
556.080,1.357
556.352,1.354
556.624,1.362
556.897,1.367
557.169,1.355
557.441,1.356
557.714,1.348
557.986,1.348
558.258,1.346
558.531,1.338
558.803,1.351
559.076,1.363
559.348,1.363
559.621,1.355
559.893,1.351
560.166,1.358
560.438,1.355
560.711,1.355
560.983,1.360
561.256,1.361
561.528,1.364
561.801,1.376
562.074,1.369
562.346,1.376
562.619,1.389
562.892,1.383
563.164,1.370
563.437,1.371
563.710,1.375
563.983,1.368
564.255,1.354
564.528,1.360
564.801,1.378
565.074,1.391
565.346,1.379
565.619,1.361
565.892,1.366
566.165,1.384
566.438,1.370
566.711,1.354
566.984,1.358
567.257,1.355
567.529,1.349
567.802,1.358
568.075,1.368
568.348,1.368
568.621,1.368
568.894,1.379
569.167,1.369
569.440,1.361
569.713,1.349
569.986,1.331
570.259,1.340
570.532,1.343
570.805,1.348
571.078,1.352
571.351,1.357
571.625,1.365
571.898,1.365
572.171,1.343
572.444,1.330
572.717,1.338
572.990,1.350
573.263,1.349
573.536,1.342
573.809,1.336
574.083,1.332
574.356,1.335
574.629,1.354
574.902,1.364
575.175,1.365
575.448,1.356
575.721,1.348
575.995,1.339
576.268,1.335
576.541,1.336
576.814,1.358
577.087,1.362
577.361,1.360
577.634,1.361
577.907,1.350
578.180,1.326
578.453,1.317
578.727,1.319
579.000,1.331
579.273,1.337
579.546,1.354
579.820,1.360
580.093,1.365
580.366,1.361
580.639,1.350
580.913,1.347
581.186,1.350
581.459,1.345
581.732,1.340
582.005,1.323
582.279,1.328
582.552,1.328
582.825,1.336
583.098,1.336
583.372,1.342
583.645,1.339
583.918,1.337
584.191,1.342
584.464,1.340
584.738,1.341
585.011,1.347
585.284,1.344
585.557,1.336
585.831,1.333
586.104,1.353
586.377,1.371
586.650,1.378
586.923,1.368
587.196,1.357
587.470,1.356
587.743,1.351
588.016,1.346
588.289,1.345
588.562,1.358
588.835,1.364
589.109,1.348
589.382,1.332
589.655,1.331
589.928,1.326
590.201,1.314
590.474,1.321
590.747,1.337
591.020,1.353
591.293,1.364
591.567,1.360
591.840,1.350
592.113,1.338
592.386,1.333
592.659,1.326
592.932,1.323
593.205,1.336
593.478,1.345
593.751,1.341
594.024,1.337
594.297,1.334
594.570,1.325
594.843,1.331
595.116,1.342
595.389,1.340
595.662,1.335
595.934,1.339
596.207,1.346
596.480,1.358
596.753,1.357
597.026,1.355
597.299,1.350
597.572,1.351
597.844,1.345
598.117,1.340
598.390,1.331
598.663,1.330
598.936,1.331
599.208,1.341
599.481,1.340
599.754,1.337
600.026,1.336
600.299,1.323
600.572,1.318
600.844,1.324
601.117,1.315
601.390,1.317
601.662,1.327
601.935,1.321
602.207,1.315
602.480,1.322
602.752,1.326
603.025,1.315
603.297,1.317
603.570,1.324
603.842,1.342
604.115,1.356
604.387,1.355
604.660,1.355
604.932,1.351
605.204,1.349
605.477,1.356
605.749,1.363
606.021,1.368
606.294,1.366
606.566,1.356
606.838,1.338
607.110,1.347
607.383,1.352
607.655,1.343
607.927,1.340
608.199,1.341
608.471,1.341
608.743,1.341
609.015,1.330
609.287,1.325
609.559,1.331
609.831,1.332
610.103,1.336
610.375,1.333
610.647,1.326
610.919,1.326
611.191,1.322
611.463,1.332
611.735,1.337
612.007,1.328
612.278,1.315
612.550,1.319
612.822,1.327
613.094,1.338
613.365,1.336
613.637,1.332
613.909,1.345
614.180,1.347
614.452,1.341
614.723,1.337
614.995,1.328
615.266,1.320
615.538,1.329
615.809,1.349
616.081,1.351
616.352,1.338
616.623,1.337
616.895,1.331
617.166,1.329
617.437,1.320
617.709,1.319
617.980,1.327
618.251,1.328
618.522,1.338
618.793,1.350
619.065,1.370
619.336,1.378
619.607,1.337
619.878,1.329
620.149,1.348
620.420,1.353
620.691,1.340
620.962,1.332
621.232,1.343
621.503,1.348
621.774,1.335
622.045,1.333
622.316,1.342
622.586,1.358
622.857,1.368
623.128,1.376
623.398,1.366
623.669,1.356
623.940,1.351
624.210,1.329
624.481,1.334
624.751,1.355
625.021,1.353
625.292,1.342
625.562,1.343
625.833,1.351
626.103,1.342
626.373,1.330
626.643,1.315
626.914,1.322
627.184,1.332
627.454,1.334
627.724,1.327
627.994,1.335
628.264,1.341
628.534,1.336
628.804,1.323
629.074,1.328
629.344,1.339
629.614,1.344
629.884,1.343
630.154,1.331
630.424,1.320
630.693,1.311
630.963,1.298
631.233,1.284
631.502,1.284
631.772,1.302
632.041,1.322
632.311,1.326
632.581,1.334
632.850,1.335
633.119,1.325
633.389,1.305
633.658,1.300
633.928,1.306
634.197,1.321
634.466,1.330
634.735,1.343
635.004,1.352
635.274,1.340
635.543,1.327
635.812,1.328
636.081,1.330
636.350,1.329
636.619,1.329
636.888,1.334
637.157,1.335
637.426,1.338
637.694,1.337
637.963,1.328
638.232,1.326
638.501,1.325
638.769,1.320
639.038,1.336
639.307,1.338
639.575,1.339
639.844,1.336
640.112,1.322
640.381,1.319
640.649,1.308
640.917,1.319
641.186,1.324
641.454,1.321
641.722,1.324
641.991,1.318
642.259,1.312
642.527,1.307
642.795,1.318
643.063,1.318
643.331,1.295
643.599,1.301
643.867,1.313
644.135,1.319
644.403,1.326
644.671,1.336
644.939,1.325
645.206,1.326
645.474,1.331
645.742,1.329
646.009,1.315
646.277,1.316
646.545,1.327
646.812,1.329
647.080,1.344
647.347,1.346
647.615,1.339
647.882,1.334
648.149,1.313
648.417,1.302
648.684,1.311
648.951,1.326
649.219,1.337
649.486,1.335
649.753,1.326
650.020,1.324
650.287,1.322
650.554,1.319
650.821,1.313
651.088,1.309
651.355,1.315
651.622,1.330
651.889,1.324
652.155,1.325
652.422,1.322
652.689,1.327
652.956,1.342
653.222,1.345
653.489,1.352
653.755,1.366
654.022,1.357
654.288,1.337
654.555,1.329
654.821,1.335
655.088,1.334
655.354,1.332
655.620,1.334
655.887,1.340
656.153,1.339
656.419,1.342
656.685,1.344
656.951,1.340
657.217,1.332
657.483,1.329
657.749,1.326
658.015,1.331
658.281,1.334
658.547,1.329
658.813,1.322
659.079,1.319
659.345,1.317
659.610,1.319
659.876,1.317
660.142,1.314
660.407,1.314
660.673,1.316
660.939,1.318
661.204,1.318
661.470,1.307
661.735,1.307
662.000,1.308
662.266,1.315
662.531,1.310
662.796,1.310
663.062,1.310
663.327,1.303
663.592,1.310
663.857,1.321
664.122,1.323
664.388,1.319
664.653,1.317
664.918,1.323
665.183,1.323
665.448,1.318
665.712,1.329
665.977,1.333
666.242,1.334
666.507,1.324
666.772,1.302
667.037,1.299
667.301,1.303
667.566,1.310
667.831,1.315
668.095,1.324
668.360,1.324
668.624,1.323
668.889,1.313
669.153,1.324
669.418,1.319
669.682,1.320
669.946,1.319
670.211,1.321
670.475,1.328
670.739,1.333
671.004,1.349
671.268,1.362
671.532,1.396
671.796,1.391
672.060,1.339
672.324,1.349
672.588,1.358
672.852,1.356
673.116,1.371
673.380,1.428
673.644,1.420
673.908,1.326
674.172,1.314
674.436,1.321
674.700,1.327
674.963,1.333
675.227,1.337
675.491,1.338
675.754,1.325
676.018,1.321
676.282,1.320
676.545,1.330
676.809,1.318
677.072,1.303
677.336,1.303
677.599,1.310
677.863,1.315
678.126,1.306
678.389,1.320
678.653,1.339
678.916,1.331
679.179,1.309
679.442,1.308
679.706,1.319
679.969,1.323
680.232,1.317
680.495,1.332
680.758,1.347
681.021,1.338
681.284,1.323
681.547,1.315
681.810,1.317
682.073,1.336
682.336,1.353
682.599,1.340
682.862,1.332
683.125,1.334
683.388,1.338
683.651,1.339
683.913,1.342
684.176,1.328
684.439,1.310
684.702,1.307
684.964,1.301
685.227,1.306
685.490,1.315
685.752,1.328
686.015,1.338
686.277,1.331
686.540,1.322
686.802,1.313
687.065,1.306
687.327,1.320
687.590,1.330
687.852,1.320
688.115,1.302
688.377,1.298
688.639,1.304
688.902,1.307
689.164,1.308
689.426,1.323
689.689,1.344
689.951,1.343
690.213,1.327
690.475,1.330
690.737,1.326
691.000,1.314
691.262,1.312
691.524,1.309
691.786,1.326
692.048,1.339
692.310,1.343
692.572,1.323
692.834,1.308
693.096,1.311
693.358,1.316
693.620,1.326
693.882,1.339
694.144,1.343
694.406,1.333
694.668,1.326
694.930,1.324
695.192,1.316
695.453,1.319
695.715,1.323
695.977,1.323
696.239,1.310
696.501,1.304
696.762,1.314
697.024,1.322
697.286,1.316
697.548,1.317
697.809,1.321
698.071,1.321
698.333,1.307
698.594,1.305
698.856,1.309
699.118,1.319
699.379,1.318
699.641,1.320
699.902,1.326
700.164,1.328
700.426,1.317
700.687,1.310
700.949,1.312
701.210,1.317
701.472,1.312
701.733,1.302
701.995,1.300
702.256,1.307
702.518,1.310
702.779,1.304
703.041,1.309
703.302,1.329
703.563,1.326
703.825,1.311
704.086,1.311
704.348,1.306
704.609,1.304
704.871,1.318
705.132,1.334
705.393,1.330
705.655,1.308
705.916,1.308
706.177,1.315
706.439,1.313
706.700,1.316
706.961,1.314
707.223,1.306
707.484,1.306
707.745,1.280
708.007,1.284
708.268,1.284
708.529,1.269
708.790,1.260
709.052,1.242
709.313,1.233
709.574,1.247
709.835,1.250
710.097,1.245
710.358,1.235
710.619,1.224
710.881,1.216
711.142,1.219
711.403,1.214
711.664,1.210
711.926,1.223
712.187,1.218
712.448,1.225
712.709,1.237
712.970,1.238
713.232,1.240
713.493,1.242
713.754,1.251
714.015,1.252
714.277,1.252
714.538,1.254
714.799,1.262
715.060,1.274
715.322,1.266
715.583,1.258
715.844,1.251
716.105,1.240
716.367,1.229
716.628,1.237
716.889,1.236
717.150,1.227
717.411,1.221
717.673,1.216
717.934,1.225
718.195,1.230
718.457,1.231
718.718,1.217
718.979,1.213
719.240,1.222
719.502,1.235
719.763,1.245
720.024,1.246
720.286,1.248
720.547,1.242
720.808,1.228
721.069,1.231
721.331,1.232
721.592,1.237
721.853,1.246
722.115,1.241
722.376,1.239
722.638,1.244
722.899,1.240
723.160,1.236
723.422,1.227
723.683,1.218
723.944,1.228
724.206,1.243
724.467,1.240
724.729,1.238
724.990,1.239
725.252,1.243
725.513,1.243
725.775,1.223
726.036,1.211
726.298,1.222
726.559,1.225
726.821,1.232
727.082,1.226
727.344,1.222
727.605,1.221
727.867,1.219
728.128,1.216
728.390,1.232
728.652,1.234
728.913,1.244
729.175,1.254
729.436,1.246
729.698,1.244
729.960,1.248
730.221,1.235
730.483,1.228
730.745,1.225
731.007,1.226
731.268,1.230
731.530,1.232
731.792,1.233
732.054,1.225
732.315,1.230
732.577,1.239
732.839,1.236
733.101,1.225
733.363,1.222
733.625,1.226
733.887,1.227
734.149,1.232
734.411,1.230
734.673,1.234
734.935,1.238
735.197,1.237
735.459,1.235
735.721,1.246
735.983,1.244
736.245,1.225
736.507,1.219
736.769,1.232
737.031,1.242
737.293,1.239
737.555,1.227
737.818,1.215
738.080,1.218
738.342,1.216
738.604,1.222
738.867,1.223
739.129,1.222
739.391,1.219
739.654,1.215
739.916,1.222
740.178,1.233
740.441,1.237
740.703,1.235
740.966,1.219
741.228,1.218
741.491,1.229
741.753,1.223
742.016,1.229
742.278,1.224
742.541,1.220
742.804,1.222
743.066,1.224
743.329,1.233
743.592,1.229
743.854,1.221
744.117,1.223
744.380,1.231
744.643,1.229
744.905,1.223
745.168,1.228
745.431,1.228
745.694,1.224
745.957,1.225
746.220,1.223
746.483,1.215
746.746,1.216
747.009,1.218
747.272,1.239
