Wavelength (nm),Intensity BB9.2,,C:/Users/Brend/Desktop/LED Spectras v2/Blinds/-Interference/Spectrometer Data (Newer).sp,,,BB9.2,
379.792,1.747,,2018-07-02 14:36:28,,Integration Time,100 ms,
380.000,1.726,,Analyze Light,,Number of Scans to Average,25,
380.209,1.719,,,,Smoothing,0,
380.418,1.731
380.627,1.744
380.837,1.757
381.048,1.772
381.259,1.767
381.471,1.754
381.683,1.765
381.896,1.779
382.110,1.787
382.324,1.783
382.538,1.801
382.753,1.814
382.969,1.810
383.185,1.791
383.402,1.789
383.619,1.790
383.837,1.805
384.055,1.826
384.274,1.844
384.493,1.843
384.712,1.837
384.932,1.839
385.153,1.846
385.374,1.845
385.596,1.854
385.818,1.862
386.040,1.880
386.263,1.899
386.487,1.900
386.710,1.894
386.935,1.888
387.159,1.880
387.385,1.884
387.610,1.877
387.836,1.887
388.063,1.898
388.289,1.904
388.517,1.903
388.744,1.911
388.972,1.898
389.201,1.926
389.430,1.923
389.659,1.925
389.889,1.941
390.119,1.948
390.349,1.951
390.580,1.958
390.811,1.960
391.042,1.959
391.274,1.959
391.507,1.974
391.739,1.975
391.972,1.966
392.205,1.975
392.439,1.988
392.673,1.988
392.907,1.987
393.142,1.997
393.377,1.997
393.612,2.013
393.848,2.028
394.084,2.026
394.320,2.034
394.557,2.033
394.794,2.046
395.031,2.055
395.269,2.068
395.507,2.089
395.745,2.089
395.983,2.080
396.222,2.084
396.461,2.088
396.700,2.104
396.940,2.117
397.180,2.111
397.420,2.110
397.660,2.112
397.901,2.114
398.142,2.113
398.383,2.125
398.625,2.116
398.866,2.107
399.108,2.133
399.351,2.162
399.593,2.178
399.836,2.164
400.079,2.158
400.322,2.152
400.566,2.150
400.809,2.142
401.053,2.147
401.298,2.148
401.542,2.163
401.787,2.182
402.031,2.194
402.277,2.197
402.522,2.204
402.767,2.207
403.013,2.209
403.259,2.206
403.505,2.211
403.752,2.210
403.998,2.204
404.245,2.208
404.492,2.234
404.739,2.244
404.986,2.243
405.234,2.259
405.482,2.270
405.730,2.260
405.978,2.257
406.226,2.265
406.475,2.250
406.723,2.249
406.972,2.262
407.221,2.279
407.470,2.288
407.720,2.289
407.969,2.297
408.219,2.282
408.469,2.302
408.719,2.315
408.969,2.310
409.219,2.312
409.470,2.327
409.720,2.328
409.971,2.342
410.222,2.353
410.473,2.358
410.724,2.365
410.976,2.366
411.227,2.375
411.479,2.387
411.731,2.387
411.983,2.396
412.235,2.396
412.487,2.398
412.740,2.392
412.992,2.408
413.245,2.413
413.497,2.408
413.750,2.406
414.003,2.421
414.257,2.408
414.510,2.403
414.763,2.399
415.017,2.421
415.270,2.421
415.524,2.437
415.778,2.423
416.032,2.421
416.286,2.426
416.540,2.445
416.794,2.449
417.049,2.452
417.303,2.449
417.558,2.461
417.812,2.472
418.067,2.469
418.322,2.470
418.577,2.475
418.832,2.452
419.088,2.456
419.343,2.459
419.598,2.468
419.854,2.448
420.109,2.475
420.365,2.477
420.621,2.490
420.876,2.491
421.132,2.502
421.388,2.498
421.645,2.494
421.901,2.491
422.157,2.500
422.413,2.504
422.670,2.510
422.926,2.506
423.183,2.513
423.439,2.505
423.696,2.526
423.953,2.537
424.210,2.574
424.467,2.583
424.724,2.565
424.981,2.572
425.238,2.578
425.495,2.590
425.753,2.620
426.010,2.631
426.267,2.643
426.525,2.663
426.782,2.701
427.040,2.715
427.298,2.755
427.555,2.800
427.813,2.840
428.071,2.853
428.329,2.890
428.587,2.926
428.845,2.970
429.103,3.019
429.361,3.079
429.619,3.132
429.878,3.185
430.136,3.237
430.394,3.304
430.653,3.359
430.911,3.457
431.170,3.543
431.428,3.626
431.687,3.691
431.946,3.784
432.204,3.865
432.463,3.965
432.722,4.080
432.981,4.184
433.240,4.288
433.499,4.447
433.758,4.578
434.017,4.754
434.276,4.887
434.535,5.038
434.794,5.161
435.053,5.331
435.312,5.499
435.572,5.682
435.831,5.860
436.090,6.080
436.350,6.310
436.609,6.537
436.869,6.760
437.128,7.003
437.388,7.223
437.647,7.456
437.907,7.719
438.166,8.036
438.426,8.284
438.686,8.565
438.946,8.843
439.205,9.157
439.465,9.485
439.725,9.815
439.985,10.149
440.245,10.507
440.505,10.848
440.765,11.248
441.025,11.604
441.285,11.989
441.545,12.394
441.805,12.821
442.065,13.250
442.325,13.694
442.585,14.157
442.846,14.652
443.106,15.161
443.366,15.746
443.626,16.276
443.887,16.823
444.147,17.442
444.407,18.070
444.668,18.698
444.928,19.374
445.189,20.061
445.449,20.825
445.710,21.585
445.970,22.408
446.231,23.248
446.491,24.171
446.752,25.121
447.012,26.093
447.273,27.101
447.534,28.193
447.794,29.251
448.055,30.422
448.316,31.620
448.577,32.887
448.837,34.209
449.098,35.573
449.359,36.989
449.620,38.415
449.881,39.848
450.142,41.369
450.403,42.932
450.664,44.550
450.924,46.208
451.185,47.913
451.446,49.621
451.707,51.354
451.969,53.090
452.230,54.837
452.491,56.542
452.752,58.209
453.013,59.850
453.274,61.447
453.535,62.978
453.796,64.501
454.058,65.854
454.319,67.181
454.580,68.451
454.841,69.558
455.103,70.538
455.364,71.428
455.625,72.189
455.887,72.805
456.148,73.309
456.409,73.685
456.671,73.933
456.932,73.932
457.194,73.832
457.455,73.587
457.716,73.166
457.978,72.658
458.239,72.047
458.501,71.281
458.763,70.446
459.024,69.502
459.286,68.424
459.547,67.278
459.809,66.053
460.071,64.684
460.332,63.238
460.594,61.827
460.856,60.412
461.117,58.995
461.379,57.528
461.641,56.071
461.903,54.609
462.164,53.185
462.426,51.805
462.688,50.487
462.950,49.172
463.212,47.913
463.474,46.682
463.736,45.497
463.998,44.333
464.260,43.300
464.522,42.358
464.784,41.443
465.046,40.568
465.308,39.755
465.570,39.009
465.832,38.271
466.094,37.578
466.356,36.928
466.618,36.326
466.880,35.697
467.142,35.104
467.405,34.555
467.667,34.041
467.929,33.556
468.191,33.049
468.454,32.553
468.716,32.082
468.978,31.577
469.241,31.035
469.503,30.513
469.765,30.040
470.028,29.564
470.290,29.076
470.552,28.607
470.815,28.128
471.077,27.643
471.340,27.158
471.602,26.679
471.865,26.177
472.128,25.669
472.390,25.158
472.653,24.643
472.915,24.126
473.178,23.611
473.441,23.079
473.703,22.552
473.966,22.005
474.229,21.430
474.492,20.906
474.755,20.373
475.017,19.805
475.280,19.329
475.543,18.831
475.806,18.327
476.069,17.820
476.332,17.325
476.595,16.813
476.858,16.381
477.121,15.924
477.384,15.467
477.647,15.044
477.910,14.665
478.173,14.267
478.436,13.866
478.699,13.473
478.962,13.139
479.226,12.788
479.489,12.483
479.752,12.153
480.015,11.838
480.279,11.521
480.542,11.239
480.805,10.949
481.069,10.684
481.332,10.409
481.595,10.162
481.859,9.931
482.122,9.753
482.386,9.522
482.649,9.273
482.913,9.056
483.177,8.848
483.440,8.615
483.704,8.431
483.967,8.259
484.231,8.102
484.495,7.927
484.759,7.760
485.022,7.568
485.286,7.395
485.550,7.218
485.814,7.066
486.078,6.865
486.342,6.719
486.606,6.563
486.869,6.429
487.133,6.268
487.397,6.142
487.662,5.991
487.926,5.855
488.190,5.698
488.454,5.573
488.718,5.419
488.982,5.291
489.246,5.135
489.511,5.017
489.775,4.884
490.039,4.774
490.304,4.628
490.568,4.508
490.832,4.378
491.097,4.284
491.361,4.175
491.626,4.070
491.890,3.961
492.155,3.865
492.419,3.748
492.684,3.677
492.949,3.569
493.213,3.481
493.478,3.400
493.743,3.330
494.008,3.235
494.272,3.143
494.537,3.066
494.802,3.013
495.067,2.948
495.332,2.896
495.597,2.845
495.862,2.800
496.127,2.724
496.392,2.678
496.657,2.626
496.922,2.571
497.187,2.506
497.452,2.473
497.718,2.443
497.983,2.427
498.248,2.394
498.513,2.347
498.779,2.311
499.044,2.303
499.310,2.270
499.575,2.225
499.841,2.192
500.106,2.181
500.372,2.158
500.637,2.123
500.903,2.110
501.168,2.103
501.434,2.071
501.700,2.040
501.966,2.004
502.231,2.000
502.497,1.975
502.763,1.967
503.029,1.936
503.295,1.915
503.561,1.905
503.827,1.884
504.093,1.874
504.359,1.870
504.625,1.864
504.891,1.850
505.157,1.838
505.423,1.831
505.690,1.798
505.956,1.784
506.222,1.780
506.489,1.778
506.755,1.789
507.021,1.788
507.288,1.779
507.554,1.768
507.821,1.740
508.087,1.726
508.354,1.724
508.621,1.732
508.887,1.714
509.154,1.697
509.421,1.696
509.687,1.689
509.954,1.672
510.221,1.663
510.488,1.654
510.755,1.663
511.022,1.669
511.289,1.663
511.556,1.634
511.823,1.630
512.090,1.634
512.357,1.640
512.624,1.621
512.891,1.613
513.159,1.597
513.426,1.586
513.693,1.579
513.960,1.578
514.228,1.585
514.495,1.597
514.763,1.594
515.030,1.590
515.298,1.579
515.565,1.559
515.833,1.567
516.100,1.567
516.368,1.553
516.636,1.547
516.904,1.540
517.171,1.548
517.439,1.544
517.707,1.550
517.975,1.537
518.243,1.533
518.511,1.527
518.779,1.512
519.047,1.495
519.315,1.522
519.583,1.520
519.851,1.489
520.119,1.476
520.387,1.482
520.656,1.481
520.924,1.487
521.192,1.482
521.461,1.483
521.729,1.488
521.997,1.493
522.266,1.486
522.534,1.488
522.803,1.487
523.071,1.484
523.340,1.478
523.609,1.461
523.877,1.452
524.146,1.452
524.415,1.454
524.684,1.457
524.952,1.452
525.221,1.440
525.490,1.442
525.759,1.461
526.028,1.462
526.297,1.456
526.566,1.436
526.835,1.433
527.104,1.432
527.373,1.441
527.642,1.448
527.912,1.434
528.181,1.431
528.450,1.424
528.719,1.422
528.989,1.438
529.258,1.453
529.528,1.453
529.797,1.444
530.067,1.437
530.336,1.445
530.606,1.429
530.875,1.422
531.145,1.418
531.414,1.423
531.684,1.434
531.954,1.443
532.224,1.438
532.493,1.426
532.763,1.411
533.033,1.410
533.303,1.420
533.573,1.432
533.843,1.433
534.113,1.418
534.383,1.411
534.653,1.400
534.923,1.410
535.193,1.428
535.463,1.420
535.733,1.430
536.004,1.439
536.274,1.432
536.544,1.427
536.814,1.416
537.085,1.417
537.355,1.410
537.626,1.416
537.896,1.421
538.166,1.416
538.437,1.416
538.707,1.404
538.978,1.392
539.249,1.398
539.519,1.406
539.790,1.398
540.061,1.381
540.331,1.392
540.602,1.411
540.873,1.419
541.144,1.416
541.414,1.411
541.685,1.409
541.956,1.410
542.227,1.411
542.498,1.408
542.769,1.396
543.040,1.407
543.311,1.409
543.582,1.413
543.853,1.420
544.124,1.415
544.396,1.419
544.667,1.423
544.938,1.416
545.209,1.407
545.480,1.380
545.752,1.393
546.023,1.404
546.294,1.407
546.566,1.396
546.837,1.391
547.109,1.380
547.380,1.389
547.652,1.385
547.923,1.376
548.195,1.381
548.466,1.401
548.738,1.411
549.009,1.417
549.281,1.407
549.553,1.407
549.824,1.393
550.096,1.372
550.368,1.377
550.640,1.391
550.911,1.390
551.183,1.402
551.455,1.423
551.727,1.432
551.999,1.424
552.271,1.403
552.543,1.394
552.815,1.394
553.087,1.394
553.359,1.411
553.631,1.415
553.903,1.409
554.175,1.411
554.447,1.413
554.719,1.416
554.991,1.410
555.263,1.410
555.535,1.409
555.808,1.398
556.080,1.394
556.352,1.386
556.624,1.387
556.897,1.394
557.169,1.389
557.441,1.393
557.714,1.387
557.986,1.378
558.258,1.388
558.531,1.385
558.803,1.404
559.076,1.404
559.348,1.399
559.621,1.386
559.893,1.388
560.166,1.395
560.438,1.387
560.711,1.375
560.983,1.382
561.256,1.378
561.528,1.380
561.801,1.398
562.074,1.406
562.346,1.408
562.619,1.414
562.892,1.409
563.164,1.401
563.437,1.403
563.710,1.400
563.983,1.389
564.255,1.378
564.528,1.386
564.801,1.409
565.074,1.419
565.346,1.407
565.619,1.395
565.892,1.396
566.165,1.404
566.438,1.387
566.711,1.375
566.984,1.379
567.257,1.377
567.529,1.381
567.802,1.397
568.075,1.414
568.348,1.411
568.621,1.396
568.894,1.397
569.167,1.390
569.440,1.390
569.713,1.386
569.986,1.370
570.259,1.384
570.532,1.379
570.805,1.380
571.078,1.389
571.351,1.385
571.625,1.383
571.898,1.389
572.171,1.367
572.444,1.360
572.717,1.369
572.990,1.384
573.263,1.387
573.536,1.372
573.809,1.360
574.083,1.358
574.356,1.355
574.629,1.370
574.902,1.381
575.175,1.381
575.448,1.373
575.721,1.361
575.995,1.362
576.268,1.360
576.541,1.364
576.814,1.380
577.087,1.380
577.361,1.380
577.634,1.382
577.907,1.387
578.180,1.366
578.453,1.357
578.727,1.357
579.000,1.359
579.273,1.368
579.546,1.373
579.820,1.383
580.093,1.395
580.366,1.384
580.639,1.365
580.913,1.362
581.186,1.363
581.459,1.368
581.732,1.369
582.005,1.358
582.279,1.354
582.552,1.351
582.825,1.361
583.098,1.367
583.372,1.371
583.645,1.380
583.918,1.376
584.191,1.370
584.464,1.369
584.738,1.369
585.011,1.368
585.284,1.368
585.557,1.361
585.831,1.357
586.104,1.373
586.377,1.391
586.650,1.411
586.923,1.406
587.196,1.396
587.470,1.392
587.743,1.376
588.016,1.375
588.289,1.371
588.562,1.381
588.835,1.387
589.109,1.376
589.382,1.368
589.655,1.364
589.928,1.363
590.201,1.364
590.474,1.364
590.747,1.372
591.020,1.384
591.293,1.385
591.567,1.379
591.840,1.371
592.113,1.364
592.386,1.351
592.659,1.340
592.932,1.346
593.205,1.354
593.478,1.357
593.751,1.361
594.024,1.366
594.297,1.368
594.570,1.355
594.843,1.365
595.116,1.381
595.389,1.378
595.662,1.368
595.934,1.361
596.207,1.361
596.480,1.369
596.753,1.374
597.026,1.377
597.299,1.370
597.572,1.370
597.844,1.366
598.117,1.354
598.390,1.343
598.663,1.342
598.936,1.350
599.208,1.355
599.481,1.358
599.754,1.363
600.026,1.367
600.299,1.350
600.572,1.349
600.844,1.348
601.117,1.334
601.390,1.328
601.662,1.341
601.935,1.345
602.207,1.343
602.480,1.357
602.752,1.353
603.025,1.349
603.297,1.341
603.570,1.347
603.842,1.354
604.115,1.368
604.387,1.366
604.660,1.371
604.932,1.364
605.204,1.367
605.477,1.376
605.749,1.376
606.021,1.385
606.294,1.395
606.566,1.387
606.838,1.365
607.110,1.368
607.383,1.369
607.655,1.368
607.927,1.372
608.199,1.373
608.471,1.376
608.743,1.372
609.015,1.355
609.287,1.358
609.559,1.360
609.831,1.364
610.103,1.371
610.375,1.362
610.647,1.344
610.919,1.344
611.191,1.344
611.463,1.354
611.735,1.361
612.007,1.359
612.278,1.355
612.550,1.357
612.822,1.366
613.094,1.372
613.365,1.368
613.637,1.358
613.909,1.367
614.180,1.363
614.452,1.364
614.723,1.361
614.995,1.356
615.266,1.350
615.538,1.368
615.809,1.384
616.081,1.378
616.352,1.360
616.623,1.357
616.895,1.355
617.166,1.351
617.437,1.345
617.709,1.342
617.980,1.349
618.251,1.355
618.522,1.365
618.793,1.373
619.065,1.394
619.336,1.401
619.607,1.366
619.878,1.352
620.149,1.366
620.420,1.371
620.691,1.369
620.962,1.363
621.232,1.368
621.503,1.368
621.774,1.365
622.045,1.369
622.316,1.373
622.586,1.379
622.857,1.389
623.128,1.390
623.398,1.374
623.669,1.376
623.940,1.370
624.210,1.355
624.481,1.354
624.751,1.370
625.021,1.369
625.292,1.359
625.562,1.350
625.833,1.354
626.103,1.346
626.373,1.337
626.643,1.334
626.914,1.346
627.184,1.359
627.454,1.361
627.724,1.357
627.994,1.356
628.264,1.360
628.534,1.358
628.804,1.343
629.074,1.348
629.344,1.364
629.614,1.370
629.884,1.367
630.154,1.355
630.424,1.342
630.693,1.330
630.963,1.326
631.233,1.318
631.502,1.313
631.772,1.336
632.041,1.355
632.311,1.353
632.581,1.348
632.850,1.347
633.119,1.337
633.389,1.330
633.658,1.328
633.928,1.326
634.197,1.333
634.466,1.345
634.735,1.347
635.004,1.356
635.274,1.347
635.543,1.350
635.812,1.348
636.081,1.345
636.350,1.343
636.619,1.352
636.888,1.352
637.157,1.352
637.426,1.348
637.694,1.350
637.963,1.342
638.232,1.343
638.501,1.347
638.769,1.347
639.038,1.360
639.307,1.368
639.575,1.372
639.844,1.367
640.112,1.349
640.381,1.337
640.649,1.336
640.917,1.346
641.186,1.341
641.454,1.333
641.722,1.341
641.991,1.343
642.259,1.337
642.527,1.334
642.795,1.341
643.063,1.339
643.331,1.326
643.599,1.336
643.867,1.340
644.135,1.340
644.403,1.344
644.671,1.357
644.939,1.351
645.206,1.354
645.474,1.357
645.742,1.350
646.009,1.336
646.277,1.326
646.545,1.331
646.812,1.346
647.080,1.360
647.347,1.369
647.615,1.366
647.882,1.362
648.149,1.343
648.417,1.340
648.684,1.342
648.951,1.349
649.219,1.366
649.486,1.362
649.753,1.349
650.020,1.344
650.287,1.341
650.554,1.327
650.821,1.331
651.088,1.327
651.355,1.334
651.622,1.356
651.889,1.346
652.155,1.346
652.422,1.339
652.689,1.352
652.956,1.366
653.222,1.355
653.489,1.360
653.755,1.381
654.022,1.369
654.288,1.350
654.555,1.341
654.821,1.346
655.088,1.353
655.354,1.366
655.620,1.373
655.887,1.377
656.153,1.374
656.419,1.372
656.685,1.366
656.951,1.360
657.217,1.357
657.483,1.347
657.749,1.337
658.015,1.347
658.281,1.355
658.547,1.347
658.813,1.335
659.079,1.326
659.345,1.325
659.610,1.328
659.876,1.327
660.142,1.327
660.407,1.328
660.673,1.328
660.939,1.340
661.204,1.348
661.470,1.340
661.735,1.344
662.000,1.345
662.266,1.342
662.531,1.333
662.796,1.339
663.062,1.343
663.327,1.337
663.592,1.326
663.857,1.339
664.122,1.333
664.388,1.327
664.653,1.337
664.918,1.344
665.183,1.350
665.448,1.354
665.712,1.357
665.977,1.357
666.242,1.362
666.507,1.349
666.772,1.318
667.037,1.317
667.301,1.326
667.566,1.326
667.831,1.328
668.095,1.337
668.360,1.336
668.624,1.332
668.889,1.326
669.153,1.337
669.418,1.329
669.682,1.329
669.946,1.338
670.211,1.346
670.475,1.356
670.739,1.360
671.004,1.366
671.268,1.374
671.532,1.407
671.796,1.409
672.060,1.360
672.324,1.366
672.588,1.372
672.852,1.374
673.116,1.389
673.380,1.446
673.644,1.431
673.908,1.345
674.172,1.338
674.436,1.341
674.700,1.345
674.963,1.349
675.227,1.355
675.491,1.352
675.754,1.338
676.018,1.336
676.282,1.339
676.545,1.350
676.809,1.349
677.072,1.334
677.336,1.330
677.599,1.335
677.863,1.338
678.126,1.332
678.389,1.339
678.653,1.357
678.916,1.352
679.179,1.336
679.442,1.323
679.706,1.329
679.969,1.338
680.232,1.332
680.495,1.343
680.758,1.356
681.021,1.349
681.284,1.334
681.547,1.334
681.810,1.337
682.073,1.347
682.336,1.363
682.599,1.361
682.862,1.348
683.125,1.350
683.388,1.360
683.651,1.364
683.913,1.357
684.176,1.345
684.439,1.330
684.702,1.318
684.964,1.311
685.227,1.314
685.490,1.327
685.752,1.343
686.015,1.359
686.277,1.342
686.540,1.336
686.802,1.334
687.065,1.328
687.327,1.340
687.590,1.343
687.852,1.336
688.115,1.330
688.377,1.322
688.639,1.328
688.902,1.331
689.164,1.334
689.426,1.350
689.689,1.368
689.951,1.362
690.213,1.345
690.475,1.345
690.737,1.342
691.000,1.339
691.262,1.339
691.524,1.347
691.786,1.364
692.048,1.370
692.310,1.366
692.572,1.340
692.834,1.330
693.096,1.326
693.358,1.340
693.620,1.355
693.882,1.370
694.144,1.363
694.406,1.354
694.668,1.346
694.930,1.341
695.192,1.331
695.453,1.328
695.715,1.339
695.977,1.338
696.239,1.321
696.501,1.314
696.762,1.316
697.024,1.330
697.286,1.336
697.548,1.329
697.809,1.333
698.071,1.328
698.333,1.326
698.594,1.326
698.856,1.329
699.118,1.339
699.379,1.345
699.641,1.336
699.902,1.351
700.164,1.361
700.426,1.341
700.687,1.340
700.949,1.338
701.210,1.345
701.472,1.337
701.733,1.324
701.995,1.316
702.256,1.324
702.518,1.321
702.779,1.311
703.041,1.317
703.302,1.345
703.563,1.344
703.825,1.328
704.086,1.327
704.348,1.328
704.609,1.320
704.871,1.326
705.132,1.342
705.393,1.342
705.655,1.320
705.916,1.329
706.177,1.340
706.439,1.342
706.700,1.343
706.961,1.337
707.223,1.324
707.484,1.317
707.745,1.296
708.007,1.301
708.268,1.300
708.529,1.284
708.790,1.268
709.052,1.250
709.313,1.251
709.574,1.264
709.835,1.264
710.097,1.261
710.358,1.247
710.619,1.230
710.881,1.223
711.142,1.225
711.403,1.226
711.664,1.227
711.926,1.226
712.187,1.211
712.448,1.217
712.709,1.231
712.970,1.245
713.232,1.251
713.493,1.252
713.754,1.251
714.015,1.246
714.277,1.249
714.538,1.248
714.799,1.259
715.060,1.277
715.322,1.268
715.583,1.259
715.844,1.256
716.105,1.250
716.367,1.248
716.628,1.247
716.889,1.244
717.150,1.239
717.411,1.229
717.673,1.223
717.934,1.234
718.195,1.239
718.457,1.241
718.718,1.220
718.979,1.214
719.240,1.223
719.502,1.235
719.763,1.241
720.024,1.243
720.286,1.244
720.547,1.241
720.808,1.226
721.069,1.231
721.331,1.226
721.592,1.240
721.853,1.249
722.115,1.242
722.376,1.244
722.638,1.247
722.899,1.248
723.160,1.253
723.422,1.243
723.683,1.231
723.944,1.239
724.206,1.249
724.467,1.244
724.729,1.242
724.990,1.248
725.252,1.255
725.513,1.248
725.775,1.237
726.036,1.226
726.298,1.229
726.559,1.229
726.821,1.229
727.082,1.229
727.344,1.235
727.605,1.233
727.867,1.231
728.128,1.230
728.390,1.236
728.652,1.235
728.913,1.245
729.175,1.249
729.436,1.245
729.698,1.251
729.960,1.260
730.221,1.247
730.483,1.234
730.745,1.224
731.007,1.232
731.268,1.233
731.530,1.226
731.792,1.220
732.054,1.225
732.315,1.234
732.577,1.239
732.839,1.242
733.101,1.231
733.363,1.226
733.625,1.230
733.887,1.229
734.149,1.238
734.411,1.238
734.673,1.241
734.935,1.244
735.197,1.236
735.459,1.230
735.721,1.242
735.983,1.242
736.245,1.224
736.507,1.217
736.769,1.238
737.031,1.243
737.293,1.246
737.555,1.237
737.818,1.222
738.080,1.224
738.342,1.220
738.604,1.230
738.867,1.226
739.129,1.216
739.391,1.219
739.654,1.218
739.916,1.221
740.178,1.229
740.441,1.237
740.703,1.240
740.966,1.232
741.228,1.233
741.491,1.233
741.753,1.232
742.016,1.240
742.278,1.245
742.541,1.241
742.804,1.242
743.066,1.241
743.329,1.238
743.592,1.245
743.854,1.237
744.117,1.246
744.380,1.254
744.643,1.244
744.905,1.233
745.168,1.230
745.431,1.224
745.694,1.219
745.957,1.220
746.220,1.222
746.483,1.220
746.746,1.218
747.009,1.223
