Wavelength (nm),Intensity ββ5.1,,C:\Users\Brend\Desktop\LED Spectras v2\Blinds\-Interference\Spectrometer Data (Alt).sp,,,ββ5.1,
379.792,1.152,,2018-07-11 14:00:33,,Integration Time,100 ms,
380.000,1.150,,Analyze Light,,Number of Scans to Average,25,
380.209,1.148,,,,Smoothing,1,
380.418,1.153
380.627,1.161
380.837,1.168
381.048,1.171
381.259,1.170
381.471,1.171
381.683,1.175
381.896,1.178
382.110,1.181
382.324,1.188
382.538,1.200
382.753,1.208
382.969,1.204
383.185,1.194
383.402,1.185
383.619,1.184
383.837,1.189
384.055,1.197
384.274,1.202
384.493,1.203
384.712,1.206
384.932,1.212
385.153,1.221
385.374,1.224
385.596,1.226
385.818,1.231
386.040,1.238
386.263,1.245
386.487,1.247
386.710,1.247
386.935,1.243
387.159,1.241
387.385,1.241
387.610,1.243
387.836,1.243
388.063,1.240
388.289,1.245
388.517,1.249
388.744,1.254
388.972,1.258
389.201,1.260
389.430,1.259
389.659,1.258
389.889,1.261
390.119,1.266
390.349,1.269
390.580,1.272
390.811,1.275
391.042,1.275
391.274,1.274
391.507,1.275
391.739,1.278
391.972,1.281
392.205,1.288
392.439,1.295
392.673,1.303
392.907,1.306
393.142,1.311
393.377,1.314
393.612,1.318
393.848,1.318
394.084,1.319
394.320,1.319
394.557,1.321
394.794,1.324
395.031,1.328
395.269,1.337
395.507,1.344
395.745,1.345
395.983,1.343
396.222,1.344
396.461,1.354
396.700,1.362
396.940,1.365
397.180,1.364
397.420,1.363
397.660,1.361
397.901,1.358
398.142,1.359
398.383,1.363
398.625,1.368
398.866,1.371
399.108,1.380
399.351,1.391
399.593,1.394
399.836,1.391
400.079,1.384
400.322,1.383
400.566,1.381
400.809,1.382
401.053,1.385
401.298,1.390
401.542,1.393
401.787,1.396
402.031,1.402
402.277,1.409
402.522,1.412
402.767,1.412
403.013,1.411
403.259,1.413
403.505,1.413
403.752,1.414
403.998,1.419
404.245,1.430
404.492,1.438
404.739,1.439
404.986,1.438
405.234,1.440
405.482,1.442
405.730,1.444
405.978,1.446
406.226,1.442
406.475,1.434
406.723,1.429
406.972,1.435
407.221,1.440
407.470,1.443
407.720,1.447
407.969,1.452
408.219,1.463
408.469,1.470
408.719,1.477
408.969,1.477
409.219,1.477
409.470,1.480
409.720,1.484
409.971,1.486
410.222,1.487
410.473,1.488
410.724,1.489
410.976,1.493
411.227,1.499
411.479,1.504
411.731,1.507
411.983,1.504
412.235,1.503
412.487,1.499
412.740,1.503
412.992,1.504
413.245,1.510
413.497,1.511
413.750,1.514
414.003,1.508
414.257,1.502
414.510,1.502
414.763,1.514
415.017,1.525
415.270,1.526
415.524,1.517
415.778,1.510
416.032,1.511
416.286,1.521
416.540,1.534
416.794,1.543
417.049,1.541
417.303,1.544
417.558,1.549
417.812,1.552
418.067,1.548
418.322,1.544
418.577,1.541
418.832,1.538
419.088,1.535
419.343,1.537
419.598,1.537
419.854,1.537
420.109,1.536
420.365,1.539
420.621,1.541
420.876,1.545
421.132,1.546
421.388,1.546
421.645,1.545
421.901,1.550
422.157,1.558
422.413,1.562
422.670,1.560
422.926,1.557
423.183,1.558
423.439,1.564
423.696,1.575
423.953,1.591
424.210,1.604
424.467,1.608
424.724,1.606
424.981,1.604
425.238,1.604
425.495,1.611
425.753,1.617
426.010,1.626
426.267,1.630
426.525,1.638
426.782,1.644
427.040,1.656
427.298,1.676
427.555,1.701
427.813,1.721
428.071,1.738
428.329,1.753
428.587,1.772
428.845,1.795
429.103,1.816
429.361,1.837
429.619,1.853
429.878,1.876
430.136,1.907
430.394,1.942
430.653,1.986
430.911,2.029
431.170,2.072
431.428,2.107
431.687,2.149
431.946,2.193
432.204,2.242
432.463,2.292
432.722,2.347
432.981,2.403
433.240,2.466
433.499,2.532
433.758,2.608
434.017,2.678
434.276,2.758
434.535,2.835
434.794,2.927
435.053,3.026
435.312,3.140
435.572,3.253
435.831,3.369
436.090,3.484
436.350,3.611
436.609,3.740
436.869,3.880
437.128,4.022
437.388,4.171
437.647,4.324
437.907,4.497
438.166,4.672
438.426,4.856
438.686,5.032
438.946,5.225
439.205,5.428
439.465,5.656
439.725,5.890
439.985,6.133
440.245,6.360
440.505,6.604
440.765,6.845
441.025,7.104
441.285,7.368
441.545,7.661
441.805,7.965
442.065,8.285
442.325,8.601
442.585,8.939
442.846,9.291
443.106,9.682
443.366,10.084
443.626,10.503
443.887,10.932
444.147,11.383
444.407,11.848
444.668,12.333
444.928,12.834
445.189,13.373
445.449,13.939
445.710,14.540
445.970,15.167
446.231,15.816
446.491,16.491
446.752,17.177
447.012,17.887
447.273,18.635
447.534,19.411
447.794,20.221
448.055,21.050
448.316,21.927
448.577,22.838
448.837,23.776
449.098,24.748
449.359,25.748
449.620,26.759
449.881,27.783
450.142,28.815
450.403,29.877
450.664,30.961
450.924,32.072
451.185,33.197
451.446,34.317
451.707,35.428
451.969,36.540
452.230,37.654
452.491,38.763
452.752,39.849
453.013,40.906
453.274,41.933
453.535,42.910
453.796,43.823
454.058,44.683
454.319,45.501
454.580,46.279
454.841,46.988
455.103,47.613
455.364,48.158
455.625,48.624
455.887,49.021
456.148,49.335
456.409,49.573
456.671,49.727
456.932,49.802
457.194,49.789
457.455,49.700
457.716,49.517
457.978,49.249
458.239,48.897
458.501,48.493
458.763,48.021
459.024,47.491
459.286,46.884
459.547,46.219
459.809,45.471
460.071,44.673
460.332,43.821
460.594,42.947
460.856,42.050
461.117,41.127
461.379,40.197
461.641,39.241
461.903,38.293
462.164,37.355
462.426,36.429
462.688,35.521
462.950,34.603
463.212,33.700
463.474,32.794
463.736,31.917
463.998,31.081
464.260,30.282
464.522,29.527
464.784,28.801
465.046,28.123
465.308,27.495
465.570,26.904
465.832,26.349
466.094,25.818
466.356,25.306
466.618,24.811
466.880,24.326
467.142,23.858
467.405,23.421
467.667,23.019
467.929,22.652
468.191,22.289
468.454,21.917
468.716,21.548
468.978,21.177
469.241,20.810
469.503,20.441
469.765,20.086
470.028,19.748
470.290,19.421
470.552,19.104
470.815,18.774
471.077,18.438
471.340,18.103
471.602,17.771
471.865,17.432
472.128,17.082
472.390,16.745
472.653,16.416
472.915,16.082
473.178,15.728
473.441,15.374
473.703,15.021
473.966,14.669
474.229,14.303
474.492,13.944
474.755,13.586
475.017,13.247
475.280,12.903
475.543,12.565
475.806,12.217
476.069,11.870
476.332,11.523
476.595,11.188
476.858,10.854
477.121,10.530
477.384,10.217
477.647,9.926
477.910,9.630
478.173,9.339
478.436,9.046
478.699,8.785
478.962,8.540
479.226,8.320
479.489,8.096
479.752,7.866
480.015,7.630
480.279,7.404
480.542,7.192
480.805,6.996
481.069,6.801
481.332,6.618
481.595,6.435
481.859,6.271
482.122,6.108
482.386,5.952
482.649,5.794
482.913,5.651
483.177,5.508
483.440,5.369
483.704,5.231
483.967,5.111
484.231,4.988
484.495,4.868
484.759,4.735
485.022,4.610
485.286,4.482
485.550,4.374
485.814,4.266
486.078,4.166
486.342,4.065
486.606,3.974
486.869,3.881
487.133,3.798
487.397,3.714
487.662,3.633
487.926,3.539
488.190,3.445
488.454,3.347
488.718,3.260
488.982,3.167
489.246,3.081
489.511,2.991
489.775,2.911
490.039,2.834
490.304,2.759
490.568,2.686
490.832,2.621
491.097,2.560
491.361,2.501
491.626,2.441
491.890,2.381
492.155,2.324
492.419,2.269
492.684,2.214
492.949,2.165
493.213,2.115
493.478,2.072
493.743,2.024
494.008,1.975
494.272,1.925
494.537,1.885
494.802,1.855
495.067,1.835
495.332,1.811
495.597,1.784
495.862,1.751
496.127,1.722
496.392,1.691
496.657,1.659
496.922,1.630
497.187,1.606
497.452,1.593
497.718,1.582
497.983,1.563
498.248,1.533
498.513,1.495
498.779,1.470
499.044,1.456
499.310,1.444
499.575,1.428
499.841,1.414
500.106,1.402
500.372,1.388
500.637,1.372
500.903,1.359
501.168,1.352
501.434,1.345
501.700,1.332
501.966,1.315
502.231,1.295
502.497,1.280
502.763,1.264
503.029,1.253
503.295,1.244
503.561,1.238
503.827,1.241
504.093,1.243
504.359,1.243
504.625,1.234
504.891,1.222
505.157,1.214
505.423,1.206
505.690,1.197
505.956,1.184
506.222,1.179
506.489,1.181
506.755,1.185
507.021,1.184
507.288,1.178
507.554,1.172
507.821,1.164
508.087,1.163
508.354,1.165
508.621,1.162
508.887,1.153
509.154,1.144
509.421,1.140
509.687,1.138
509.954,1.132
510.221,1.125
510.488,1.119
510.755,1.116
511.022,1.113
511.289,1.106
511.556,1.098
511.823,1.096
512.090,1.101
512.357,1.101
512.624,1.095
512.891,1.083
513.159,1.072
513.426,1.066
513.693,1.065
513.960,1.068
514.228,1.070
514.495,1.067
514.763,1.063
515.030,1.056
515.298,1.052
515.565,1.052
515.833,1.053
516.100,1.053
516.368,1.048
516.636,1.043
516.904,1.040
517.171,1.036
517.439,1.033
517.707,1.029
517.975,1.025
518.243,1.022
518.511,1.015
518.779,1.009
519.047,1.007
519.315,1.008
519.583,1.008
519.851,1.005
520.119,1.006
520.387,1.008
520.656,1.010
520.924,1.010
521.192,1.012
521.461,1.016
521.729,1.020
521.997,1.020
522.266,1.016
522.534,1.013
522.803,1.014
523.071,1.011
523.340,1.003
523.609,0.993
523.877,0.986
524.146,0.980
524.415,0.980
524.684,0.983
524.952,0.984
525.221,0.986
525.490,0.987
525.759,0.991
526.028,0.989
526.297,0.984
526.566,0.980
526.835,0.980
527.104,0.983
527.373,0.985
527.642,0.985
527.912,0.980
528.181,0.977
528.450,0.978
528.719,0.982
528.989,0.985
529.258,0.983
529.528,0.976
529.797,0.972
530.067,0.972
530.336,0.973
530.606,0.973
530.875,0.969
531.145,0.968
531.414,0.970
531.684,0.975
531.954,0.977
532.224,0.972
532.493,0.964
532.763,0.958
533.033,0.956
533.303,0.960
533.573,0.962
533.843,0.961
534.113,0.953
534.383,0.949
534.653,0.950
534.923,0.954
535.193,0.958
535.463,0.964
535.733,0.971
536.004,0.973
536.274,0.970
536.544,0.964
536.814,0.957
537.085,0.953
537.355,0.955
537.626,0.959
537.896,0.962
538.166,0.961
538.437,0.961
538.707,0.959
538.978,0.959
539.249,0.960
539.519,0.958
539.790,0.954
540.061,0.952
540.331,0.955
540.602,0.959
540.873,0.962
541.144,0.963
541.414,0.961
541.685,0.960
541.956,0.956
542.227,0.954
542.498,0.948
542.769,0.943
543.040,0.943
543.311,0.949
543.582,0.958
543.853,0.962
544.124,0.965
544.396,0.964
544.667,0.965
544.938,0.960
545.209,0.950
545.480,0.942
545.752,0.940
546.023,0.944
546.294,0.947
546.566,0.946
546.837,0.943
547.109,0.941
547.380,0.941
547.652,0.944
547.923,0.947
548.195,0.948
548.466,0.953
548.738,0.956
549.009,0.960
549.281,0.957
549.553,0.951
549.824,0.945
550.096,0.940
550.368,0.938
550.640,0.938
550.911,0.942
551.183,0.952
551.455,0.964
551.727,0.967
551.999,0.960
552.271,0.951
552.543,0.945
552.815,0.944
553.087,0.947
553.359,0.949
553.631,0.950
553.903,0.949
554.175,0.951
554.447,0.956
554.719,0.961
554.991,0.961
555.263,0.956
555.535,0.952
555.808,0.947
556.080,0.944
556.352,0.941
556.624,0.941
556.897,0.942
557.169,0.941
557.441,0.938
557.714,0.935
557.986,0.935
558.258,0.934
558.531,0.937
558.803,0.943
559.076,0.948
559.348,0.944
559.621,0.939
559.893,0.939
560.166,0.941
560.438,0.939
560.711,0.934
560.983,0.932
561.256,0.936
561.528,0.942
561.801,0.945
562.074,0.947
562.346,0.949
562.619,0.952
562.892,0.954
563.164,0.954
563.437,0.957
563.710,0.958
563.983,0.955
564.255,0.950
564.528,0.949
564.801,0.951
565.074,0.950
565.346,0.947
565.619,0.945
565.892,0.948
566.165,0.947
566.438,0.941
566.711,0.937
566.984,0.934
567.257,0.934
567.529,0.937
567.802,0.945
568.075,0.951
568.348,0.954
568.621,0.950
568.894,0.949
569.167,0.949
569.440,0.945
569.713,0.937
569.986,0.930
570.259,0.929
570.532,0.935
570.805,0.939
571.078,0.943
571.351,0.945
571.625,0.943
571.898,0.937
572.171,0.931
572.444,0.931
572.717,0.936
572.990,0.939
573.263,0.935
573.536,0.927
573.809,0.918
574.083,0.914
574.356,0.918
574.629,0.928
574.902,0.936
575.175,0.936
575.448,0.930
575.721,0.923
575.995,0.919
576.268,0.919
576.541,0.923
576.814,0.932
577.087,0.940
577.361,0.944
577.634,0.943
577.907,0.938
578.180,0.931
578.453,0.926
578.727,0.926
579.000,0.926
579.273,0.928
579.546,0.933
579.820,0.940
580.093,0.941
580.366,0.934
580.639,0.927
580.913,0.923
581.186,0.925
581.459,0.927
581.732,0.925
582.005,0.923
582.279,0.919
582.552,0.919
582.825,0.919
583.098,0.923
583.372,0.926
583.645,0.931
583.918,0.934
584.191,0.936
584.464,0.936
584.738,0.937
585.011,0.936
585.284,0.932
585.557,0.928
585.831,0.930
586.104,0.938
586.377,0.947
586.650,0.949
586.923,0.945
587.196,0.937
587.470,0.931
587.743,0.928
588.016,0.928
588.289,0.930
588.562,0.930
588.835,0.928
589.109,0.925
589.382,0.921
589.655,0.919
589.928,0.917
590.201,0.917
590.474,0.921
590.747,0.930
591.020,0.937
591.293,0.941
591.567,0.940
591.840,0.938
592.113,0.931
592.386,0.923
592.659,0.919
592.932,0.921
593.205,0.924
593.478,0.926
593.751,0.926
594.024,0.922
594.297,0.918
594.570,0.919
594.843,0.922
595.116,0.926
595.389,0.926
595.662,0.924
595.934,0.924
596.207,0.925
596.480,0.930
596.753,0.933
597.026,0.933
597.299,0.930
597.572,0.924
597.844,0.922
598.117,0.919
598.390,0.918
598.663,0.919
598.936,0.921
599.208,0.924
599.481,0.928
599.754,0.928
600.026,0.926
600.299,0.922
600.572,0.921
600.844,0.917
601.117,0.914
601.390,0.911
601.662,0.909
601.935,0.906
602.207,0.908
602.480,0.913
602.752,0.916
603.025,0.913
603.297,0.911
603.570,0.915
603.842,0.921
604.115,0.925
604.387,0.924
604.660,0.919
604.932,0.917
605.204,0.920
605.477,0.929
605.749,0.935
606.021,0.937
606.294,0.933
606.566,0.930
606.838,0.931
607.110,0.936
607.383,0.939
607.655,0.940
607.927,0.940
608.199,0.941
608.471,0.936
608.743,0.929
609.015,0.921
609.287,0.917
609.559,0.917
609.831,0.920
610.103,0.922
610.375,0.922
610.647,0.917
610.919,0.912
611.191,0.910
611.463,0.913
611.735,0.914
612.007,0.913
612.278,0.910
612.550,0.910
612.822,0.913
613.094,0.916
613.365,0.919
613.637,0.926
613.909,0.932
614.180,0.932
614.452,0.928
614.723,0.921
614.995,0.916
615.266,0.913
615.538,0.914
615.809,0.916
616.081,0.915
616.352,0.915
616.623,0.912
616.895,0.910
617.166,0.908
617.437,0.910
617.709,0.915
617.980,0.919
618.251,0.925
618.522,0.929
618.793,0.935
619.065,0.937
619.336,0.934
619.607,0.928
619.878,0.929
620.149,0.931
620.420,0.930
620.691,0.924
620.962,0.928
621.232,0.930
621.503,0.927
621.774,0.920
622.045,0.919
622.316,0.926
622.586,0.934
622.857,0.939
623.128,0.937
623.398,0.935
623.669,0.931
623.940,0.928
624.210,0.922
624.481,0.921
624.751,0.921
625.021,0.919
625.292,0.913
625.562,0.906
625.833,0.902
626.103,0.899
626.373,0.899
626.643,0.904
626.914,0.910
627.184,0.915
627.454,0.915
627.724,0.915
627.994,0.916
628.264,0.918
628.534,0.917
628.804,0.913
629.074,0.910
629.344,0.914
629.614,0.919
629.884,0.917
630.154,0.913
630.424,0.907
630.693,0.903
630.963,0.898
631.233,0.895
631.502,0.897
631.772,0.903
632.041,0.910
632.311,0.913
632.581,0.913
632.850,0.910
633.119,0.907
633.389,0.903
633.658,0.903
633.928,0.904
634.197,0.908
634.466,0.914
634.735,0.919
635.004,0.919
635.274,0.917
635.543,0.915
635.812,0.913
636.081,0.911
636.350,0.910
636.619,0.914
636.888,0.914
637.157,0.917
637.426,0.916
637.694,0.916
637.963,0.915
638.232,0.915
638.501,0.915
638.769,0.913
639.038,0.914
639.307,0.919
639.575,0.922
639.844,0.922
640.112,0.920
640.381,0.917
640.649,0.919
640.917,0.920
641.186,0.920
641.454,0.917
641.722,0.914
641.991,0.913
642.259,0.908
642.527,0.904
642.795,0.900
643.063,0.899
643.331,0.899
643.599,0.902
643.867,0.902
644.135,0.905
644.403,0.909
644.671,0.915
644.939,0.923
645.206,0.927
645.474,0.927
645.742,0.921
646.009,0.918
646.277,0.917
646.545,0.919
646.812,0.923
647.080,0.928
647.347,0.929
647.615,0.925
647.882,0.917
648.149,0.909
648.417,0.905
648.684,0.907
648.951,0.913
649.219,0.919
649.486,0.920
649.753,0.917
650.020,0.913
650.287,0.909
650.554,0.903
650.821,0.897
651.088,0.899
651.355,0.906
651.622,0.912
651.889,0.912
652.155,0.909
652.422,0.911
652.689,0.916
652.956,0.923
653.222,0.928
653.489,0.932
653.755,0.928
654.022,0.919
654.288,0.908
654.555,0.906
654.821,0.908
655.088,0.911
655.354,0.915
655.620,0.918
655.887,0.921
656.153,0.925
656.419,0.929
656.685,0.932
656.951,0.932
657.217,0.932
657.483,0.930
657.749,0.930
658.015,0.930
658.281,0.930
658.547,0.923
658.813,0.915
659.079,0.906
659.345,0.900
659.610,0.897
659.876,0.896
660.142,0.897
660.407,0.900
660.673,0.905
660.939,0.910
661.204,0.912
661.470,0.910
661.735,0.907
662.000,0.906
662.266,0.906
662.531,0.906
662.796,0.904
663.062,0.901
663.327,0.897
663.592,0.897
663.857,0.899
664.122,0.899
664.388,0.899
664.653,0.903
664.918,0.910
665.183,0.917
665.448,0.919
665.712,0.920
665.977,0.921
666.242,0.917
666.507,0.907
666.772,0.901
667.037,0.898
667.301,0.901
667.566,0.902
667.831,0.906
668.095,0.908
668.360,0.904
668.624,0.900
668.889,0.897
669.153,0.899
669.418,0.904
669.682,0.908
669.946,0.910
670.211,0.911
670.475,0.915
670.739,0.921
671.004,0.931
671.268,0.946
671.532,0.952
671.796,0.947
672.060,0.932
672.324,0.923
672.588,0.924
672.852,0.932
673.116,0.952
673.380,0.961
673.644,0.951
673.908,0.930
674.172,0.915
674.436,0.910
674.700,0.908
674.963,0.908
675.227,0.910
675.491,0.910
675.754,0.907
676.018,0.906
676.282,0.908
676.545,0.906
676.809,0.902
677.072,0.899
677.336,0.902
677.599,0.906
677.863,0.908
678.126,0.909
678.389,0.912
678.653,0.915
678.916,0.914
679.179,0.908
679.442,0.907
679.706,0.909
679.969,0.914
680.232,0.917
680.495,0.921
680.758,0.922
681.021,0.917
681.284,0.909
681.547,0.906
681.810,0.910
682.073,0.916
682.336,0.916
682.599,0.912
682.862,0.908
683.125,0.908
683.388,0.909
683.651,0.909
683.913,0.906
684.176,0.901
684.439,0.896
684.702,0.893
684.964,0.893
685.227,0.895
685.490,0.902
685.752,0.909
686.015,0.910
686.277,0.906
686.540,0.901
686.802,0.899
687.065,0.899
687.327,0.903
687.590,0.902
687.852,0.898
688.115,0.891
688.377,0.892
688.639,0.894
688.902,0.899
689.164,0.902
689.426,0.908
689.689,0.912
689.951,0.913
690.213,0.911
690.475,0.906
690.737,0.900
691.000,0.896
691.262,0.897
691.524,0.905
691.786,0.914
692.048,0.919
692.310,0.917
692.572,0.907
692.834,0.900
693.096,0.901
693.358,0.908
693.620,0.915
693.882,0.920
694.144,0.920
694.406,0.917
694.668,0.911
694.930,0.909
695.192,0.910
695.453,0.914
695.715,0.917
695.977,0.915
696.239,0.910
696.501,0.906
696.762,0.906
697.024,0.903
697.286,0.896
697.548,0.894
697.809,0.892
698.071,0.892
698.333,0.887
698.594,0.886
698.856,0.888
699.118,0.894
699.379,0.902
699.641,0.908
699.902,0.912
700.164,0.912
700.426,0.910
700.687,0.909
700.949,0.912
701.210,0.917
701.472,0.915
701.733,0.908
701.995,0.900
702.256,0.897
702.518,0.895
702.779,0.898
703.041,0.906
703.302,0.909
703.563,0.904
703.825,0.897
704.086,0.895
704.348,0.899
704.609,0.902
704.871,0.906
705.132,0.905
705.393,0.902
705.655,0.897
705.916,0.895
706.177,0.897
706.439,0.901
706.700,0.902
706.961,0.903
707.223,0.900
707.484,0.890
707.745,0.876
708.007,0.866
708.268,0.864
708.529,0.862
708.790,0.857
709.052,0.855
709.313,0.856
709.574,0.862
709.835,0.866
710.097,0.866
710.358,0.862
710.619,0.853
710.881,0.844
711.142,0.836
711.403,0.839
711.664,0.841
711.926,0.845
712.187,0.845
712.448,0.850
712.709,0.857
712.970,0.858
713.232,0.858
713.493,0.855
713.754,0.851
714.015,0.850
714.277,0.848
714.538,0.852
714.799,0.859
715.060,0.864
715.322,0.866
715.583,0.864
715.844,0.862
716.105,0.858
716.367,0.851
716.628,0.849
716.889,0.849
717.150,0.848
717.411,0.848
717.673,0.850
717.934,0.853
718.195,0.851
718.457,0.849
718.718,0.847
718.979,0.848
719.240,0.847
719.502,0.847
719.763,0.849
720.024,0.853
720.286,0.853
720.547,0.849
720.808,0.845
721.069,0.842
721.331,0.845
721.592,0.848
721.853,0.852
722.115,0.855
722.376,0.858
722.638,0.860
722.899,0.858
723.160,0.852
723.422,0.847
723.683,0.848
723.944,0.851
724.206,0.854
724.467,0.856
724.729,0.857
724.990,0.862
725.252,0.863
725.513,0.858
725.775,0.847
726.036,0.839
726.298,0.839
726.559,0.845
726.821,0.851
727.082,0.854
727.344,0.856
727.605,0.852
727.867,0.847
728.128,0.842
728.390,0.842
728.652,0.851
728.913,0.858
729.175,0.860
729.436,0.857
729.698,0.855
729.960,0.856
730.221,0.853
730.483,0.849
730.745,0.846
731.007,0.845
731.268,0.840
731.530,0.838
731.792,0.839
732.054,0.843
732.315,0.846
732.577,0.848
732.839,0.845
733.101,0.843
733.363,0.843
733.625,0.847
733.887,0.849
734.149,0.849
734.411,0.851
734.673,0.854
734.935,0.851
735.197,0.849
735.459,0.848
735.721,0.851
735.983,0.849
736.245,0.846
736.507,0.845
736.769,0.850
737.031,0.853
737.293,0.851
737.555,0.847
737.818,0.843
738.080,0.842
738.342,0.840
738.604,0.841
738.867,0.843
739.129,0.846
739.391,0.846
739.654,0.844
739.916,0.843
740.178,0.847
740.441,0.851
740.703,0.852
740.966,0.847
741.228,0.842
741.491,0.842
741.753,0.847
742.016,0.851
742.278,0.854
742.541,0.854
742.804,0.854
743.066,0.858
743.329,0.858
743.592,0.856
743.854,0.857
744.117,0.859
744.380,0.860
744.643,0.852
744.905,0.847
745.168,0.846
745.431,0.845
745.694,0.842
745.957,0.838
746.220,0.834
746.483,0.828
746.746,0.826
747.009,0.835
747.272,0.850
747.535,0.859
747.798,0.857
