Wavelength (nm),Intensity ββ7.1,,C:\Users\Brend\Desktop\LED Spectras v2\Blinds\-Interference\Spectrometer Data (Alt).sp,,,ββ7.1,
379.792,1.379,,2018-07-11 15:06:23,,Integration Time,100 ms,
380.000,1.383,,Analyze Light,,Number of Scans to Average,25,
380.209,1.384,,,,Smoothing,1,
380.418,1.390
380.627,1.400
380.837,1.408
381.048,1.408
381.259,1.400
381.471,1.394
381.683,1.395
381.896,1.401
382.110,1.405
382.324,1.411
382.538,1.415
382.753,1.419
382.969,1.417
383.185,1.417
383.402,1.419
383.619,1.422
383.837,1.428
384.055,1.435
384.274,1.442
384.493,1.447
384.712,1.448
384.932,1.448
385.153,1.448
385.374,1.452
385.596,1.454
385.818,1.461
386.040,1.470
386.263,1.479
386.487,1.481
386.710,1.480
386.935,1.478
387.159,1.477
387.385,1.478
387.610,1.478
387.836,1.483
388.063,1.484
388.289,1.485
388.517,1.483
388.744,1.482
388.972,1.490
389.201,1.492
389.430,1.491
389.659,1.491
389.889,1.498
390.119,1.510
390.349,1.518
390.580,1.525
390.811,1.525
391.042,1.522
391.274,1.515
391.507,1.512
391.739,1.512
391.972,1.508
392.205,1.508
392.439,1.520
392.673,1.531
392.907,1.536
393.142,1.536
393.377,1.546
393.612,1.559
393.848,1.568
394.084,1.573
394.320,1.574
394.557,1.579
394.794,1.580
395.031,1.581
395.269,1.583
395.507,1.586
395.745,1.587
395.983,1.588
396.222,1.594
396.461,1.606
396.700,1.619
396.940,1.631
397.180,1.637
397.420,1.637
397.660,1.630
397.901,1.625
398.142,1.623
398.383,1.619
398.625,1.613
398.866,1.616
399.108,1.630
399.351,1.652
399.593,1.658
399.836,1.658
400.079,1.649
400.322,1.643
400.566,1.637
400.809,1.635
401.053,1.639
401.298,1.648
401.542,1.657
401.787,1.661
402.031,1.663
402.277,1.667
402.522,1.673
402.767,1.679
403.013,1.681
403.259,1.681
403.505,1.680
403.752,1.675
403.998,1.672
404.245,1.678
404.492,1.695
404.739,1.709
404.986,1.715
405.234,1.715
405.482,1.712
405.730,1.709
405.978,1.708
406.226,1.706
406.475,1.698
406.723,1.693
406.972,1.696
407.221,1.706
407.470,1.712
407.720,1.713
407.969,1.710
408.219,1.713
408.469,1.717
408.719,1.723
408.969,1.729
409.219,1.738
409.470,1.745
409.720,1.750
409.971,1.751
410.222,1.756
410.473,1.752
410.724,1.749
410.976,1.749
411.227,1.758
411.479,1.768
411.731,1.773
411.983,1.773
412.235,1.773
412.487,1.772
412.740,1.776
412.992,1.779
413.245,1.782
413.497,1.782
413.750,1.783
414.003,1.782
414.257,1.776
414.510,1.770
414.763,1.769
415.017,1.775
415.270,1.779
415.524,1.781
415.778,1.783
416.032,1.786
416.286,1.794
416.540,1.796
416.794,1.799
417.049,1.801
417.303,1.807
417.558,1.814
417.812,1.818
418.067,1.818
418.322,1.814
418.577,1.809
418.832,1.807
419.088,1.807
419.343,1.810
419.598,1.805
419.854,1.805
420.109,1.807
420.365,1.815
420.621,1.818
420.876,1.821
421.132,1.822
421.388,1.824
421.645,1.826
421.901,1.832
422.157,1.834
422.413,1.836
422.670,1.833
422.926,1.834
423.183,1.833
423.439,1.837
423.696,1.846
423.953,1.866
424.210,1.885
424.467,1.896
424.724,1.891
424.981,1.880
425.238,1.874
425.495,1.878
425.753,1.883
426.010,1.891
426.267,1.894
426.525,1.909
426.782,1.925
427.040,1.943
427.298,1.962
427.555,1.985
427.813,2.008
428.071,2.030
428.329,2.044
428.587,2.058
428.845,2.072
429.103,2.095
429.361,2.121
429.619,2.150
429.878,2.174
430.136,2.204
430.394,2.237
430.653,2.280
430.911,2.326
431.170,2.377
431.428,2.424
431.687,2.464
431.946,2.502
432.204,2.552
432.463,2.610
432.722,2.672
432.981,2.729
433.240,2.795
433.499,2.866
433.758,2.953
434.017,3.042
434.276,3.138
434.535,3.225
434.794,3.314
435.053,3.410
435.312,3.519
435.572,3.628
435.831,3.745
436.090,3.864
436.350,3.998
436.609,4.136
436.869,4.281
437.128,4.428
437.388,4.589
437.647,4.760
437.907,4.946
438.166,5.127
438.426,5.311
438.686,5.489
438.946,5.680
439.205,5.881
439.465,6.108
439.725,6.343
439.985,6.591
440.245,6.834
440.505,7.092
440.765,7.356
441.025,7.640
441.285,7.928
441.545,8.230
441.805,8.533
442.065,8.857
442.325,9.185
442.585,9.531
442.846,9.885
443.106,10.271
443.366,10.680
443.626,11.107
443.887,11.539
444.147,11.983
444.407,12.448
444.668,12.938
444.928,13.443
445.189,13.980
445.449,14.536
445.710,15.131
445.970,15.743
446.231,16.386
446.491,17.052
446.752,17.748
447.012,18.478
447.273,19.224
447.534,19.999
447.794,20.787
448.055,21.604
448.316,22.449
448.577,23.330
448.837,24.246
449.098,25.182
449.359,26.152
449.620,27.133
449.881,28.129
450.142,29.129
450.403,30.164
450.664,31.238
450.924,32.344
451.185,33.476
451.446,34.599
451.707,35.719
451.969,36.828
452.230,37.956
452.491,39.083
452.752,40.181
453.013,41.242
453.274,42.251
453.535,43.222
453.796,44.151
454.058,45.070
454.319,45.953
454.580,46.782
454.841,47.528
455.103,48.217
455.364,48.848
455.625,49.438
455.887,49.948
456.148,50.382
456.409,50.732
456.671,51.019
456.932,51.221
457.194,51.321
457.455,51.317
457.716,51.239
457.978,51.094
458.239,50.880
458.501,50.594
458.763,50.234
459.024,49.797
459.286,49.275
459.547,48.666
459.809,47.999
460.071,47.273
460.332,46.510
460.594,45.688
460.856,44.850
461.117,43.980
461.379,43.108
461.641,42.203
461.903,41.275
462.164,40.343
462.426,39.405
462.688,38.473
462.950,37.534
463.212,36.605
463.474,35.696
463.736,34.791
463.998,33.922
464.260,33.071
464.522,32.271
464.784,31.501
465.046,30.777
465.308,30.082
465.570,29.429
465.832,28.808
466.094,28.208
466.356,27.632
466.618,27.063
466.880,26.525
467.142,26.013
467.405,25.538
467.667,25.079
467.929,24.631
468.191,24.205
468.454,23.796
468.716,23.399
468.978,22.997
469.241,22.608
469.503,22.229
469.765,21.867
470.028,21.516
470.290,21.172
470.552,20.834
470.815,20.492
471.077,20.137
471.340,19.782
471.602,19.428
471.865,19.084
472.128,18.728
472.390,18.387
472.653,18.049
472.915,17.715
473.178,17.357
473.441,16.987
473.703,16.611
473.966,16.254
474.229,15.897
474.492,15.532
474.755,15.148
475.017,14.779
475.280,14.426
475.543,14.082
475.806,13.718
476.069,13.352
476.332,12.989
476.595,12.642
476.858,12.297
477.121,11.957
477.384,11.622
477.647,11.295
477.910,10.968
478.173,10.656
478.436,10.350
478.699,10.069
478.962,9.790
479.226,9.526
479.489,9.268
479.752,9.020
480.015,8.775
480.279,8.538
480.542,8.302
480.805,8.082
481.069,7.857
481.332,7.649
481.595,7.445
481.859,7.270
482.122,7.094
482.386,6.920
482.649,6.743
482.913,6.578
483.177,6.410
483.440,6.241
483.704,6.077
483.967,5.935
484.231,5.801
484.495,5.676
484.759,5.546
485.022,5.423
485.286,5.292
485.550,5.168
485.814,5.035
486.078,4.919
486.342,4.796
486.606,4.682
486.869,4.562
487.133,4.456
487.397,4.358
487.662,4.265
487.926,4.167
488.190,4.072
488.454,3.972
488.718,3.880
488.982,3.783
489.246,3.693
489.511,3.598
489.775,3.508
490.039,3.421
490.304,3.342
490.568,3.257
490.832,3.171
491.097,3.086
491.361,3.013
491.626,2.941
491.890,2.875
492.155,2.808
492.419,2.755
492.684,2.698
492.949,2.644
493.213,2.583
493.478,2.525
493.743,2.465
494.008,2.402
494.272,2.345
494.537,2.297
494.802,2.257
495.067,2.224
495.332,2.190
495.597,2.160
495.862,2.123
496.127,2.092
496.392,2.058
496.657,2.025
496.922,1.987
497.187,1.959
497.452,1.933
497.718,1.911
497.983,1.884
498.248,1.857
498.513,1.826
498.779,1.804
499.044,1.786
499.310,1.770
499.575,1.750
499.841,1.735
500.106,1.728
500.372,1.712
500.637,1.695
500.903,1.682
501.168,1.672
501.434,1.658
501.700,1.639
501.966,1.623
502.231,1.607
502.497,1.589
502.763,1.568
503.029,1.547
503.295,1.530
503.561,1.514
503.827,1.505
504.093,1.501
504.359,1.503
504.625,1.502
504.891,1.491
505.157,1.478
505.423,1.459
505.690,1.445
505.956,1.433
506.222,1.429
506.489,1.430
506.755,1.432
507.021,1.431
507.288,1.427
507.554,1.419
507.821,1.408
508.087,1.401
508.354,1.401
508.621,1.400
508.887,1.395
509.154,1.388
509.421,1.382
509.687,1.370
509.954,1.356
510.221,1.350
510.488,1.354
510.755,1.358
511.022,1.354
511.289,1.342
511.556,1.328
511.823,1.319
512.090,1.319
512.357,1.319
512.624,1.319
512.891,1.315
513.159,1.307
513.426,1.298
513.693,1.288
513.960,1.285
514.228,1.283
514.495,1.284
514.763,1.283
515.030,1.281
515.298,1.277
515.565,1.276
515.833,1.274
516.100,1.272
516.368,1.270
516.636,1.270
516.904,1.270
517.171,1.265
517.439,1.262
517.707,1.260
517.975,1.258
518.243,1.256
518.511,1.250
518.779,1.243
519.047,1.241
519.315,1.245
519.583,1.248
519.851,1.244
520.119,1.241
520.387,1.241
520.656,1.244
520.924,1.244
521.192,1.245
521.461,1.241
521.729,1.236
521.997,1.232
522.266,1.231
522.534,1.231
522.803,1.230
523.071,1.225
523.340,1.215
523.609,1.208
523.877,1.209
524.146,1.213
524.415,1.217
524.684,1.219
524.952,1.217
525.221,1.217
525.490,1.218
525.759,1.218
526.028,1.216
526.297,1.210
526.566,1.209
526.835,1.206
527.104,1.207
527.373,1.204
527.642,1.200
527.912,1.191
528.181,1.187
528.450,1.187
528.719,1.193
528.989,1.202
529.258,1.209
529.528,1.207
529.797,1.199
530.067,1.197
530.336,1.199
530.606,1.202
530.875,1.200
531.145,1.197
531.414,1.194
531.684,1.194
531.954,1.193
532.224,1.190
532.493,1.180
532.763,1.172
533.033,1.167
533.303,1.168
533.573,1.171
533.843,1.171
534.113,1.166
534.383,1.160
534.653,1.160
534.923,1.162
535.193,1.168
535.463,1.175
535.733,1.181
536.004,1.186
536.274,1.184
536.544,1.174
536.814,1.165
537.085,1.160
537.355,1.163
537.626,1.168
537.896,1.169
538.166,1.169
538.437,1.170
538.707,1.169
538.978,1.169
539.249,1.169
539.519,1.168
539.790,1.161
540.061,1.156
540.331,1.161
540.602,1.168
540.873,1.173
541.144,1.175
541.414,1.175
541.685,1.174
541.956,1.171
542.227,1.167
542.498,1.160
542.769,1.155
543.040,1.157
543.311,1.163
543.582,1.168
543.853,1.172
544.124,1.176
544.396,1.179
544.667,1.178
544.938,1.172
545.209,1.161
545.480,1.156
545.752,1.154
546.023,1.160
546.294,1.159
546.566,1.157
546.837,1.153
547.109,1.154
547.380,1.154
547.652,1.154
547.923,1.154
548.195,1.160
548.466,1.167
548.738,1.175
549.009,1.175
549.281,1.170
549.553,1.159
549.824,1.146
550.096,1.142
550.368,1.146
550.640,1.152
550.911,1.157
551.183,1.163
551.455,1.178
551.727,1.187
551.999,1.183
552.271,1.169
552.543,1.158
552.815,1.155
553.087,1.161
553.359,1.167
553.631,1.170
553.903,1.170
554.175,1.172
554.447,1.176
554.719,1.180
554.991,1.184
555.263,1.185
555.535,1.182
555.808,1.175
556.080,1.166
556.352,1.165
556.624,1.162
556.897,1.158
557.169,1.153
557.441,1.150
557.714,1.149
557.986,1.148
558.258,1.147
558.531,1.150
558.803,1.154
559.076,1.156
559.348,1.151
559.621,1.151
559.893,1.153
560.166,1.157
560.438,1.151
560.711,1.145
560.983,1.140
561.256,1.140
561.528,1.143
561.801,1.149
562.074,1.155
562.346,1.159
562.619,1.163
562.892,1.162
563.164,1.161
563.437,1.165
563.710,1.166
563.983,1.163
564.255,1.156
564.528,1.162
564.801,1.169
565.074,1.171
565.346,1.161
565.619,1.154
565.892,1.158
566.165,1.160
566.438,1.156
566.711,1.150
566.984,1.150
567.257,1.156
567.529,1.159
567.802,1.166
568.075,1.169
568.348,1.172
568.621,1.167
568.894,1.165
569.167,1.162
569.440,1.156
569.713,1.150
569.986,1.146
570.259,1.143
570.532,1.143
570.805,1.144
571.078,1.147
571.351,1.149
571.625,1.149
571.898,1.149
572.171,1.145
572.444,1.145
572.717,1.149
572.990,1.154
573.263,1.150
573.536,1.140
573.809,1.130
574.083,1.129
574.356,1.139
574.629,1.153
574.902,1.162
575.175,1.160
575.448,1.148
575.721,1.142
575.995,1.143
576.268,1.148
576.541,1.150
576.814,1.150
577.087,1.155
577.361,1.159
577.634,1.160
577.907,1.152
578.180,1.140
578.453,1.133
578.727,1.131
579.000,1.135
579.273,1.142
579.546,1.152
579.820,1.158
580.093,1.155
580.366,1.146
580.639,1.138
580.913,1.133
581.186,1.131
581.459,1.131
581.732,1.129
582.005,1.128
582.279,1.131
582.552,1.136
582.825,1.142
583.098,1.142
583.372,1.143
583.645,1.142
583.918,1.144
584.191,1.146
584.464,1.147
584.738,1.147
585.011,1.144
585.284,1.141
585.557,1.140
585.831,1.142
586.104,1.150
586.377,1.159
586.650,1.163
586.923,1.165
587.196,1.161
587.470,1.154
587.743,1.148
588.016,1.142
588.289,1.144
588.562,1.148
588.835,1.152
589.109,1.147
589.382,1.140
589.655,1.136
589.928,1.135
590.201,1.137
590.474,1.141
590.747,1.147
591.020,1.154
591.293,1.157
591.567,1.155
591.840,1.148
592.113,1.140
592.386,1.133
592.659,1.129
592.932,1.128
593.205,1.127
593.478,1.122
593.751,1.119
594.024,1.120
594.297,1.122
594.570,1.122
594.843,1.124
595.116,1.129
595.389,1.134
595.662,1.134
595.934,1.134
596.207,1.135
596.480,1.139
596.753,1.142
597.026,1.143
597.299,1.143
597.572,1.142
597.844,1.140
598.117,1.134
598.390,1.129
598.663,1.126
598.936,1.128
599.208,1.131
599.481,1.136
599.754,1.139
600.026,1.136
600.299,1.131
600.572,1.127
600.844,1.125
601.117,1.121
601.390,1.116
601.662,1.114
601.935,1.115
602.207,1.119
602.480,1.124
602.752,1.124
603.025,1.121
603.297,1.120
603.570,1.125
603.842,1.130
604.115,1.131
604.387,1.128
604.660,1.122
604.932,1.121
605.204,1.125
605.477,1.134
605.749,1.144
606.021,1.152
606.294,1.154
606.566,1.147
606.838,1.140
607.110,1.139
607.383,1.142
607.655,1.145
607.927,1.148
608.199,1.152
608.471,1.152
608.743,1.149
609.015,1.143
609.287,1.139
609.559,1.136
609.831,1.134
610.103,1.134
610.375,1.134
610.647,1.133
610.919,1.130
611.191,1.130
611.463,1.133
611.735,1.134
612.007,1.132
612.278,1.129
612.550,1.127
612.822,1.127
613.094,1.129
613.365,1.130
613.637,1.133
613.909,1.134
614.180,1.138
614.452,1.139
614.723,1.137
614.995,1.133
615.266,1.128
615.538,1.131
615.809,1.139
616.081,1.143
616.352,1.143
616.623,1.141
616.895,1.141
617.166,1.137
617.437,1.134
617.709,1.133
617.980,1.139
618.251,1.146
618.522,1.148
618.793,1.152
619.065,1.160
619.336,1.163
619.607,1.155
619.878,1.147
620.149,1.143
620.420,1.146
620.691,1.142
620.962,1.142
621.232,1.141
621.503,1.139
621.774,1.133
622.045,1.128
622.316,1.133
622.586,1.146
622.857,1.156
623.128,1.156
623.398,1.152
623.669,1.145
623.940,1.142
624.210,1.141
624.481,1.143
624.751,1.141
625.021,1.136
625.292,1.131
625.562,1.130
625.833,1.129
626.103,1.124
626.373,1.122
626.643,1.124
626.914,1.128
627.184,1.129
627.454,1.127
627.724,1.127
627.994,1.130
628.264,1.134
628.534,1.134
628.804,1.130
629.074,1.129
629.344,1.133
629.614,1.137
629.884,1.138
630.154,1.135
630.424,1.127
630.693,1.118
630.963,1.108
631.233,1.105
631.502,1.109
631.772,1.118
632.041,1.127
632.311,1.131
632.581,1.131
632.850,1.127
633.119,1.120
633.389,1.112
633.658,1.106
633.928,1.108
634.197,1.115
634.466,1.128
634.735,1.133
635.004,1.131
635.274,1.126
635.543,1.122
635.812,1.123
636.081,1.127
636.350,1.131
636.619,1.134
636.888,1.134
637.157,1.134
637.426,1.134
637.694,1.129
637.963,1.124
638.232,1.121
638.501,1.119
638.769,1.120
639.038,1.123
639.307,1.132
639.575,1.139
639.844,1.137
640.112,1.131
640.381,1.121
640.649,1.116
640.917,1.111
641.186,1.113
641.454,1.116
641.722,1.120
641.991,1.123
642.259,1.123
642.527,1.127
642.795,1.127
643.063,1.120
643.331,1.109
643.599,1.104
643.867,1.111
644.135,1.118
644.403,1.126
644.671,1.130
644.939,1.135
645.206,1.136
645.474,1.135
645.742,1.131
646.009,1.124
646.277,1.121
646.545,1.124
646.812,1.137
647.080,1.148
647.347,1.150
647.615,1.142
647.882,1.132
648.149,1.122
648.417,1.118
648.684,1.119
648.951,1.125
649.219,1.130
649.486,1.131
649.753,1.129
650.020,1.122
650.287,1.112
650.554,1.105
650.821,1.105
651.088,1.110
651.355,1.118
651.622,1.121
651.889,1.122
652.155,1.118
652.422,1.119
652.689,1.122
652.956,1.127
653.222,1.134
653.489,1.141
653.755,1.143
654.022,1.136
654.288,1.124
654.555,1.117
654.821,1.120
655.088,1.127
655.354,1.134
655.620,1.140
655.887,1.143
656.153,1.147
656.419,1.145
656.685,1.143
656.951,1.137
657.217,1.131
657.483,1.122
657.749,1.115
658.015,1.111
658.281,1.115
658.547,1.116
658.813,1.121
659.079,1.122
659.345,1.120
659.610,1.116
659.876,1.114
660.142,1.117
660.407,1.120
660.673,1.124
660.939,1.127
661.204,1.128
661.470,1.125
661.735,1.119
662.000,1.114
662.266,1.111
662.531,1.110
662.796,1.106
663.062,1.103
663.327,1.103
663.592,1.109
663.857,1.115
664.122,1.122
664.388,1.124
664.653,1.128
664.918,1.133
665.183,1.135
665.448,1.136
665.712,1.136
665.977,1.141
666.242,1.140
666.507,1.130
666.772,1.116
667.037,1.109
667.301,1.111
667.566,1.115
667.831,1.113
668.095,1.110
668.360,1.109
668.624,1.108
668.889,1.112
669.153,1.115
669.418,1.118
669.682,1.120
669.946,1.125
670.211,1.133
670.475,1.139
670.739,1.144
671.004,1.149
671.268,1.166
671.532,1.178
671.796,1.173
672.060,1.158
672.324,1.144
672.588,1.146
672.852,1.157
673.116,1.182
673.380,1.199
673.644,1.181
673.908,1.147
674.172,1.122
674.436,1.123
674.700,1.126
674.963,1.128
675.227,1.128
675.491,1.124
675.754,1.120
676.018,1.117
676.282,1.120
676.545,1.124
676.809,1.125
677.072,1.122
677.336,1.118
677.599,1.115
677.863,1.114
678.126,1.115
678.389,1.120
678.653,1.126
678.916,1.125
679.179,1.119
679.442,1.114
679.706,1.113
679.969,1.114
680.232,1.117
680.495,1.122
680.758,1.128
681.021,1.127
681.284,1.121
681.547,1.115
681.810,1.116
682.073,1.122
682.336,1.127
682.599,1.127
682.862,1.125
683.125,1.129
683.388,1.133
683.651,1.134
683.913,1.127
684.176,1.118
684.439,1.107
684.702,1.096
684.964,1.092
685.227,1.100
685.490,1.114
685.752,1.127
686.015,1.131
686.277,1.130
686.540,1.122
686.802,1.114
687.065,1.113
687.327,1.120
687.590,1.126
687.852,1.126
688.115,1.119
688.377,1.115
688.639,1.112
688.902,1.114
689.164,1.115
689.426,1.124
689.689,1.128
689.951,1.128
690.213,1.123
690.475,1.122
690.737,1.122
691.000,1.124
691.262,1.128
691.524,1.134
691.786,1.141
692.048,1.146
692.310,1.141
692.572,1.128
692.834,1.114
693.096,1.109
693.358,1.111
693.620,1.117
693.882,1.126
694.144,1.129
694.406,1.127
694.668,1.120
694.930,1.113
695.192,1.110
695.453,1.112
695.715,1.118
695.977,1.119
696.239,1.114
696.501,1.110
696.762,1.111
697.024,1.111
697.286,1.111
697.548,1.114
697.809,1.117
698.071,1.117
698.333,1.114
698.594,1.113
698.856,1.114
699.118,1.117
699.379,1.124
699.641,1.133
699.902,1.141
700.164,1.141
700.426,1.135
700.687,1.126
700.949,1.121
701.210,1.114
701.472,1.102
701.733,1.092
701.995,1.092
702.256,1.100
702.518,1.108
702.779,1.114
703.041,1.127
703.302,1.141
703.563,1.142
703.825,1.130
704.086,1.118
704.348,1.115
704.609,1.118
704.871,1.123
705.132,1.127
705.393,1.123
705.655,1.118
705.916,1.113
706.177,1.114
706.439,1.115
706.700,1.115
706.961,1.116
707.223,1.114
707.484,1.105
707.745,1.093
708.007,1.081
708.268,1.073
708.529,1.070
708.790,1.066
709.052,1.066
709.313,1.068
709.574,1.074
709.835,1.080
710.097,1.079
710.358,1.075
710.619,1.069
710.881,1.067
711.142,1.068
711.403,1.069
711.664,1.065
711.926,1.063
712.187,1.064
712.448,1.069
712.709,1.077
712.970,1.082
713.232,1.085
713.493,1.083
713.754,1.080
714.015,1.078
714.277,1.078
714.538,1.079
714.799,1.079
715.060,1.076
715.322,1.071
715.583,1.067
715.844,1.066
716.105,1.067
716.367,1.069
716.628,1.076
716.889,1.078
717.150,1.073
717.411,1.062
717.673,1.057
717.934,1.059
718.195,1.065
718.457,1.064
718.718,1.061
718.979,1.060
719.240,1.063
719.502,1.066
719.763,1.066
720.024,1.064
720.286,1.063
720.547,1.061
720.808,1.061
721.069,1.060
721.331,1.064
721.592,1.071
721.853,1.079
722.115,1.084
722.376,1.085
722.638,1.079
722.899,1.070
723.160,1.062
723.422,1.058
723.683,1.058
723.944,1.061
724.206,1.061
724.467,1.059
724.729,1.058
724.990,1.061
725.252,1.064
725.513,1.059
725.775,1.051
726.036,1.044
726.298,1.038
726.559,1.035
726.821,1.036
727.082,1.041
727.344,1.045
727.605,1.049
727.867,1.050
728.128,1.051
728.390,1.051
728.652,1.056
728.913,1.061
729.175,1.059
729.436,1.057
729.698,1.054
729.960,1.058
730.221,1.056
730.483,1.052
730.745,1.052
731.007,1.052
731.268,1.052
731.530,1.050
731.792,1.050
732.054,1.052
732.315,1.057
732.577,1.058
732.839,1.054
733.101,1.046
733.363,1.042
733.625,1.045
733.887,1.050
734.149,1.054
734.411,1.058
734.673,1.063
734.935,1.065
735.197,1.069
735.459,1.075
735.721,1.080
735.983,1.075
736.245,1.065
736.507,1.062
736.769,1.065
737.031,1.066
737.293,1.060
737.555,1.051
737.818,1.042
738.080,1.042
738.342,1.045
738.604,1.051
738.867,1.053
739.129,1.054
739.391,1.049
739.654,1.043
739.916,1.039
740.178,1.041
740.441,1.047
740.703,1.046
740.966,1.044
741.228,1.041
741.491,1.044
741.753,1.051
742.016,1.055
742.278,1.054
742.541,1.049
742.804,1.047
743.066,1.052
743.329,1.058
743.592,1.061
743.854,1.064
744.117,1.068
744.380,1.070
744.643,1.067
744.905,1.064
745.168,1.066
745.431,1.069
745.694,1.069
745.957,1.060
746.220,1.051
746.483,1.044
746.746,1.046
747.009,1.054
747.272,1.065
747.535,1.072
