Wavelength (nm),Intensity ββ10.3,,C:\Users\Brend\Desktop\LED Spectras v2\Blinds\-Interference\Spectrometer Data (Alt).sp,,,ββ10.3,
379.792,1.417,,2018-07-11 15:07:21,,Integration Time,100 ms,
380.000,1.415,,Analyze Light,,Number of Scans to Average,25,
380.209,1.412,,,,Smoothing,1,
380.418,1.417
380.627,1.425
380.837,1.430
381.048,1.431
381.259,1.429
381.471,1.426
381.683,1.425
381.896,1.427
382.110,1.431
382.324,1.441
382.538,1.453
382.753,1.462
382.969,1.455
383.185,1.445
383.402,1.439
383.619,1.443
383.837,1.451
384.055,1.463
384.274,1.474
384.493,1.482
384.712,1.483
384.932,1.485
385.153,1.486
385.374,1.486
385.596,1.492
385.818,1.503
386.040,1.519
386.263,1.527
386.487,1.525
386.710,1.517
386.935,1.506
387.159,1.504
387.385,1.501
387.610,1.499
387.836,1.499
388.063,1.505
388.289,1.515
388.517,1.520
388.744,1.524
388.972,1.534
389.201,1.539
389.430,1.543
389.659,1.543
389.889,1.550
390.119,1.558
390.349,1.562
390.580,1.566
390.811,1.563
391.042,1.557
391.274,1.554
391.507,1.558
391.739,1.564
391.972,1.567
392.205,1.571
392.439,1.578
392.673,1.584
392.907,1.587
393.142,1.590
393.377,1.595
393.612,1.603
393.848,1.606
394.084,1.609
394.320,1.607
394.557,1.610
394.794,1.614
395.031,1.621
395.269,1.628
395.507,1.631
395.745,1.632
395.983,1.633
396.222,1.638
396.461,1.644
396.700,1.652
396.940,1.658
397.180,1.661
397.420,1.660
397.660,1.654
397.901,1.649
398.142,1.645
398.383,1.641
398.625,1.638
398.866,1.645
399.108,1.662
399.351,1.682
399.593,1.686
399.836,1.682
400.079,1.673
400.322,1.671
400.566,1.668
400.809,1.670
401.053,1.670
401.298,1.673
401.542,1.679
401.787,1.689
402.031,1.695
402.277,1.696
402.522,1.696
402.767,1.698
403.013,1.697
403.259,1.698
403.505,1.697
403.752,1.700
403.998,1.701
404.245,1.712
404.492,1.723
404.739,1.732
404.986,1.733
405.234,1.736
405.482,1.740
405.730,1.741
405.978,1.741
406.226,1.736
406.475,1.728
406.723,1.722
406.972,1.723
407.221,1.733
407.470,1.745
407.720,1.753
407.969,1.751
408.219,1.755
408.469,1.762
408.719,1.771
408.969,1.773
409.219,1.774
409.470,1.771
409.720,1.769
409.971,1.766
410.222,1.768
410.473,1.766
410.724,1.767
410.976,1.770
411.227,1.782
411.479,1.789
411.731,1.793
411.983,1.793
412.235,1.794
412.487,1.792
412.740,1.793
412.992,1.795
413.245,1.802
413.497,1.807
413.750,1.807
414.003,1.800
414.257,1.790
414.510,1.788
414.763,1.793
415.017,1.800
415.270,1.806
415.524,1.809
415.778,1.813
416.032,1.817
416.286,1.823
416.540,1.824
416.794,1.825
417.049,1.823
417.303,1.826
417.558,1.827
417.812,1.826
418.067,1.826
418.322,1.826
418.577,1.825
418.832,1.823
419.088,1.819
419.343,1.820
419.598,1.818
419.854,1.821
420.109,1.821
420.365,1.826
420.621,1.828
420.876,1.834
421.132,1.836
421.388,1.836
421.645,1.834
421.901,1.837
422.157,1.841
422.413,1.845
422.670,1.842
422.926,1.841
423.183,1.839
423.439,1.844
423.696,1.853
423.953,1.875
424.210,1.893
424.467,1.897
424.724,1.893
424.981,1.888
425.238,1.890
425.495,1.898
425.753,1.906
426.010,1.915
426.267,1.927
426.525,1.948
426.782,1.970
427.040,1.990
427.298,2.007
427.555,2.029
427.813,2.051
428.071,2.073
428.329,2.093
428.587,2.115
428.845,2.141
429.103,2.172
429.361,2.202
429.619,2.233
429.878,2.263
430.136,2.299
430.394,2.335
430.653,2.386
430.911,2.442
431.170,2.501
431.428,2.553
431.687,2.604
431.946,2.656
432.204,2.715
432.463,2.780
432.722,2.854
432.981,2.933
433.240,3.027
433.499,3.125
433.758,3.233
434.017,3.329
434.276,3.430
434.535,3.530
434.794,3.645
435.053,3.762
435.312,3.888
435.572,4.015
435.831,4.153
436.090,4.295
436.350,4.451
436.609,4.619
436.869,4.797
437.128,4.973
437.388,5.152
437.647,5.335
437.907,5.535
438.166,5.736
438.426,5.954
438.686,6.173
438.946,6.405
439.205,6.636
439.465,6.885
439.725,7.148
439.985,7.427
440.245,7.709
440.505,8.003
440.765,8.302
441.025,8.617
441.285,8.933
441.545,9.267
441.805,9.603
442.065,9.954
442.325,10.312
442.585,10.708
442.846,11.120
443.106,11.557
443.366,11.999
443.626,12.466
443.887,12.951
444.147,13.456
444.407,13.977
444.668,14.515
444.928,15.086
445.189,15.697
445.449,16.333
445.710,17.000
445.970,17.681
446.231,18.410
446.491,19.161
446.752,19.957
447.012,20.770
447.273,21.631
447.534,22.499
447.794,23.405
448.055,24.333
448.316,25.322
448.577,26.360
448.837,27.433
449.098,28.526
449.359,29.640
449.620,30.763
449.881,31.903
450.142,33.040
450.403,34.213
450.664,35.411
450.924,36.647
451.185,37.887
451.446,39.121
451.707,40.337
451.969,41.550
452.230,42.738
452.491,43.899
452.752,45.006
453.013,46.082
453.274,47.101
453.535,48.063
453.796,48.953
454.058,49.775
454.319,50.508
454.580,51.146
454.841,51.688
455.103,52.133
455.364,52.475
455.625,52.728
455.887,52.886
456.148,52.959
456.409,52.929
456.671,52.793
456.932,52.547
457.194,52.188
457.455,51.735
457.716,51.190
457.978,50.567
458.239,49.874
458.501,49.115
458.763,48.302
459.024,47.418
459.286,46.479
459.547,45.479
459.809,44.439
460.071,43.357
460.332,42.261
460.594,41.170
460.856,40.086
461.117,39.004
461.379,37.948
461.641,36.916
461.903,35.909
462.164,34.907
462.426,33.932
462.688,32.981
462.950,32.076
463.212,31.208
463.474,30.379
463.736,29.590
463.998,28.844
464.260,28.151
464.522,27.500
464.784,26.878
465.046,26.303
465.308,25.769
465.570,25.275
465.832,24.816
466.094,24.386
466.356,23.980
466.618,23.571
466.880,23.162
467.142,22.768
467.405,22.394
467.667,22.037
467.929,21.688
468.191,21.353
468.454,21.032
468.716,20.714
468.978,20.374
469.241,20.014
469.503,19.656
469.765,19.322
470.028,18.990
470.290,18.657
470.552,18.317
470.815,17.985
471.077,17.642
471.340,17.302
471.602,16.949
471.865,16.594
472.128,16.232
472.390,15.872
472.653,15.511
472.915,15.151
473.178,14.795
473.441,14.438
473.703,14.067
473.966,13.694
474.229,13.323
474.492,12.968
474.755,12.604
475.017,12.248
475.280,11.899
475.543,11.581
475.806,11.259
476.069,10.933
476.332,10.598
476.595,10.280
476.858,9.973
477.121,9.674
477.384,9.375
477.647,9.102
477.910,8.843
478.173,8.601
478.436,8.347
478.699,8.109
478.962,7.872
479.226,7.662
479.489,7.457
479.752,7.267
480.015,7.074
480.279,6.892
480.542,6.713
480.805,6.543
481.069,6.365
481.332,6.201
481.595,6.040
481.859,5.907
482.122,5.773
482.386,5.647
482.649,5.511
482.913,5.386
483.177,5.259
483.440,5.134
483.704,5.002
483.967,4.887
484.231,4.777
484.495,4.678
484.759,4.571
485.022,4.467
485.286,4.362
485.550,4.256
485.814,4.138
486.078,4.030
486.342,3.931
486.606,3.854
486.869,3.774
487.133,3.696
487.397,3.614
487.662,3.535
487.926,3.447
488.190,3.361
488.454,3.272
488.718,3.193
488.982,3.106
489.246,3.025
489.511,2.938
489.775,2.863
490.039,2.789
490.304,2.722
490.568,2.653
490.832,2.592
491.097,2.536
491.361,2.489
491.626,2.437
491.890,2.389
492.155,2.342
492.419,2.300
492.684,2.255
492.949,2.214
493.213,2.177
493.478,2.149
493.743,2.111
494.008,2.067
494.272,2.019
494.537,1.983
494.802,1.955
495.067,1.938
495.332,1.918
495.597,1.898
495.862,1.873
496.127,1.851
496.392,1.827
496.657,1.801
496.922,1.776
497.187,1.755
497.452,1.743
497.718,1.734
497.983,1.721
498.248,1.704
498.513,1.686
498.779,1.678
499.044,1.671
499.310,1.659
499.575,1.639
499.841,1.624
500.106,1.614
500.372,1.601
500.637,1.588
500.903,1.585
501.168,1.582
501.434,1.571
501.700,1.550
501.966,1.537
502.231,1.520
502.497,1.504
502.763,1.486
503.029,1.475
503.295,1.466
503.561,1.459
503.827,1.457
504.093,1.456
504.359,1.451
504.625,1.446
504.891,1.436
505.157,1.429
505.423,1.418
505.690,1.406
505.956,1.396
506.222,1.392
506.489,1.398
506.755,1.405
507.021,1.406
507.288,1.400
507.554,1.391
507.821,1.386
508.087,1.384
508.354,1.385
508.621,1.380
508.887,1.372
509.154,1.365
509.421,1.361
509.687,1.356
509.954,1.349
510.221,1.340
510.488,1.336
510.755,1.336
511.022,1.342
511.289,1.339
511.556,1.332
511.823,1.325
512.090,1.328
512.357,1.326
512.624,1.322
512.891,1.312
513.159,1.302
513.426,1.295
513.693,1.292
513.960,1.296
514.228,1.303
514.495,1.304
514.763,1.296
515.030,1.286
515.298,1.277
515.565,1.273
515.833,1.271
516.100,1.271
516.368,1.271
516.636,1.269
516.904,1.270
517.171,1.269
517.439,1.269
517.707,1.263
517.975,1.260
518.243,1.262
518.511,1.266
518.779,1.263
519.047,1.258
519.315,1.254
519.583,1.249
519.851,1.241
520.119,1.235
520.387,1.233
520.656,1.233
520.924,1.233
521.192,1.237
521.461,1.244
521.729,1.250
521.997,1.253
522.266,1.254
522.534,1.250
522.803,1.247
523.071,1.241
523.340,1.232
523.609,1.223
523.877,1.218
524.146,1.220
524.415,1.225
524.684,1.227
524.952,1.225
525.221,1.223
525.490,1.224
525.759,1.223
526.028,1.221
526.297,1.218
526.566,1.219
526.835,1.220
527.104,1.221
527.373,1.222
527.642,1.221
527.912,1.214
528.181,1.206
528.450,1.203
528.719,1.209
528.989,1.219
529.258,1.226
529.528,1.226
529.797,1.221
530.067,1.218
530.336,1.215
530.606,1.213
530.875,1.208
531.145,1.205
531.414,1.206
531.684,1.207
531.954,1.206
532.224,1.200
532.493,1.191
532.763,1.185
533.033,1.185
533.303,1.192
533.573,1.198
533.843,1.200
534.113,1.195
534.383,1.190
534.653,1.191
534.923,1.197
535.193,1.199
535.463,1.201
535.733,1.204
536.004,1.207
536.274,1.207
536.544,1.200
536.814,1.191
537.085,1.185
537.355,1.190
537.626,1.197
537.896,1.200
538.166,1.198
538.437,1.191
538.707,1.186
538.978,1.185
539.249,1.190
539.519,1.191
539.790,1.186
540.061,1.181
540.331,1.183
540.602,1.192
540.873,1.200
541.144,1.204
541.414,1.203
541.685,1.200
541.956,1.195
542.227,1.192
542.498,1.188
542.769,1.189
543.040,1.193
543.311,1.197
543.582,1.200
543.853,1.199
544.124,1.202
544.396,1.205
544.667,1.207
544.938,1.203
545.209,1.192
545.480,1.186
545.752,1.185
546.023,1.189
546.294,1.187
546.566,1.183
546.837,1.178
547.109,1.178
547.380,1.176
547.652,1.173
547.923,1.173
548.195,1.178
548.466,1.188
548.738,1.197
549.009,1.198
549.281,1.195
549.553,1.185
549.824,1.180
550.096,1.177
550.368,1.179
550.640,1.181
550.911,1.183
551.183,1.188
551.455,1.197
551.727,1.201
551.999,1.197
552.271,1.189
552.543,1.183
552.815,1.180
553.087,1.183
553.359,1.187
553.631,1.192
553.903,1.194
554.175,1.197
554.447,1.202
554.719,1.205
554.991,1.204
555.263,1.198
555.535,1.195
555.808,1.192
556.080,1.187
556.352,1.184
556.624,1.184
556.897,1.185
557.169,1.186
557.441,1.181
557.714,1.175
557.986,1.169
558.258,1.168
558.531,1.173
558.803,1.178
559.076,1.182
559.348,1.177
559.621,1.172
559.893,1.170
560.166,1.170
560.438,1.168
560.711,1.164
560.983,1.163
561.256,1.168
561.528,1.175
561.801,1.181
562.074,1.184
562.346,1.186
562.619,1.191
562.892,1.193
563.164,1.193
563.437,1.191
563.710,1.187
563.983,1.181
564.255,1.179
564.528,1.187
564.801,1.198
565.074,1.201
565.346,1.195
565.619,1.190
565.892,1.190
566.165,1.190
566.438,1.181
566.711,1.174
566.984,1.168
567.257,1.169
567.529,1.172
567.802,1.180
568.075,1.185
568.348,1.184
568.621,1.178
568.894,1.175
569.167,1.173
569.440,1.168
569.713,1.159
569.986,1.158
570.259,1.160
570.532,1.170
570.805,1.176
571.078,1.181
571.351,1.183
571.625,1.181
571.898,1.173
572.171,1.162
572.444,1.158
572.717,1.164
572.990,1.172
573.263,1.175
573.536,1.171
573.809,1.161
574.083,1.156
574.356,1.156
574.629,1.164
574.902,1.170
575.175,1.169
575.448,1.160
575.721,1.155
575.995,1.151
576.268,1.151
576.541,1.155
576.814,1.164
577.087,1.171
577.361,1.174
577.634,1.173
577.907,1.168
578.180,1.163
578.453,1.160
578.727,1.158
579.000,1.156
579.273,1.157
579.546,1.166
579.820,1.178
580.093,1.182
580.366,1.177
580.639,1.170
580.913,1.165
581.186,1.163
581.459,1.160
581.732,1.157
582.005,1.155
582.279,1.153
582.552,1.155
582.825,1.158
583.098,1.160
583.372,1.159
583.645,1.158
583.918,1.162
584.191,1.165
584.464,1.166
584.738,1.163
585.011,1.161
585.284,1.158
585.557,1.156
585.831,1.158
586.104,1.166
586.377,1.177
586.650,1.184
586.923,1.184
587.196,1.180
587.470,1.173
587.743,1.169
588.016,1.168
588.289,1.172
588.562,1.179
588.835,1.180
589.109,1.176
589.382,1.167
589.655,1.161
589.928,1.156
590.201,1.154
590.474,1.158
590.747,1.166
591.020,1.172
591.293,1.173
591.567,1.171
591.840,1.168
592.113,1.164
592.386,1.155
592.659,1.147
592.932,1.147
593.205,1.157
593.478,1.166
593.751,1.170
594.024,1.169
594.297,1.164
594.570,1.160
594.843,1.160
595.116,1.164
595.389,1.163
595.662,1.161
595.934,1.160
596.207,1.165
596.480,1.172
596.753,1.175
597.026,1.175
597.299,1.174
597.572,1.174
597.844,1.173
598.117,1.164
598.390,1.157
598.663,1.154
598.936,1.158
599.208,1.167
599.481,1.175
599.754,1.175
600.026,1.167
600.299,1.158
600.572,1.154
600.844,1.153
601.117,1.148
601.390,1.142
601.662,1.140
601.935,1.140
602.207,1.142
602.480,1.144
602.752,1.146
603.025,1.146
603.297,1.143
603.570,1.148
603.842,1.156
604.115,1.166
604.387,1.168
604.660,1.164
604.932,1.159
605.204,1.160
605.477,1.166
605.749,1.171
606.021,1.175
606.294,1.173
606.566,1.166
606.838,1.161
607.110,1.160
607.383,1.161
607.655,1.163
607.927,1.166
608.199,1.171
608.471,1.172
608.743,1.168
609.015,1.163
609.287,1.159
609.559,1.160
609.831,1.163
610.103,1.163
610.375,1.158
610.647,1.149
610.919,1.143
611.191,1.144
611.463,1.150
611.735,1.153
612.007,1.152
612.278,1.147
612.550,1.144
612.822,1.146
613.094,1.150
613.365,1.153
613.637,1.159
613.909,1.163
614.180,1.167
614.452,1.164
614.723,1.159
614.995,1.153
615.266,1.155
615.538,1.165
615.809,1.173
616.081,1.171
616.352,1.163
616.623,1.154
616.895,1.150
617.166,1.146
617.437,1.147
617.709,1.150
617.980,1.154
618.251,1.157
618.522,1.161
618.793,1.173
619.065,1.184
619.336,1.184
619.607,1.174
619.878,1.165
620.149,1.164
620.420,1.164
620.691,1.165
620.962,1.169
621.232,1.172
621.503,1.169
621.774,1.162
622.045,1.160
622.316,1.167
622.586,1.177
622.857,1.187
623.128,1.188
623.398,1.184
623.669,1.174
623.940,1.161
624.210,1.153
624.481,1.153
624.751,1.157
625.021,1.156
625.292,1.152
625.562,1.151
625.833,1.152
626.103,1.151
626.373,1.150
626.643,1.150
626.914,1.152
627.184,1.155
627.454,1.156
627.724,1.155
627.994,1.152
628.264,1.151
628.534,1.149
628.804,1.151
629.074,1.154
629.344,1.159
629.614,1.159
629.884,1.153
630.154,1.146
630.424,1.139
630.693,1.133
630.963,1.127
631.233,1.124
631.502,1.130
631.772,1.143
632.041,1.153
632.311,1.154
632.581,1.153
632.850,1.151
633.119,1.147
633.389,1.143
633.658,1.145
633.928,1.154
634.197,1.158
634.466,1.158
634.735,1.158
635.004,1.155
635.274,1.151
635.543,1.148
635.812,1.152
636.081,1.156
636.350,1.157
636.619,1.158
636.888,1.157
637.157,1.158
637.426,1.159
637.694,1.158
637.963,1.155
638.232,1.150
638.501,1.147
638.769,1.148
639.038,1.154
639.307,1.160
639.575,1.161
639.844,1.158
640.112,1.150
640.381,1.144
640.649,1.143
640.917,1.146
641.186,1.146
641.454,1.147
641.722,1.147
641.991,1.149
642.259,1.147
642.527,1.147
642.795,1.147
643.063,1.141
643.331,1.137
643.599,1.134
643.867,1.141
644.135,1.146
644.403,1.148
644.671,1.148
644.939,1.149
645.206,1.152
645.474,1.156
645.742,1.154
646.009,1.148
646.277,1.145
646.545,1.149
646.812,1.159
647.080,1.165
647.347,1.165
647.615,1.160
647.882,1.153
648.149,1.147
648.417,1.141
648.684,1.140
648.951,1.141
649.219,1.143
649.486,1.146
649.753,1.145
650.020,1.140
650.287,1.133
650.554,1.130
650.821,1.127
651.088,1.129
651.355,1.135
651.622,1.142
651.889,1.146
652.155,1.143
652.422,1.145
652.689,1.153
652.956,1.162
653.222,1.167
653.489,1.172
653.755,1.174
654.022,1.169
654.288,1.158
654.555,1.150
654.821,1.148
655.088,1.153
655.354,1.159
655.620,1.167
655.887,1.170
656.153,1.172
656.419,1.172
656.685,1.173
656.951,1.171
657.217,1.166
657.483,1.160
657.749,1.154
658.015,1.153
658.281,1.152
658.547,1.146
658.813,1.141
659.079,1.137
659.345,1.138
659.610,1.140
659.876,1.142
660.142,1.141
660.407,1.143
660.673,1.143
660.939,1.146
661.204,1.145
661.470,1.143
661.735,1.142
662.000,1.143
662.266,1.144
662.531,1.146
662.796,1.146
663.062,1.143
663.327,1.137
663.592,1.135
663.857,1.137
664.122,1.141
664.388,1.146
664.653,1.150
664.918,1.154
665.183,1.154
665.448,1.154
665.712,1.155
665.977,1.158
666.242,1.155
666.507,1.147
666.772,1.138
667.037,1.135
667.301,1.137
667.566,1.140
667.831,1.144
668.095,1.147
668.360,1.147
668.624,1.145
668.889,1.146
669.153,1.145
669.418,1.143
669.682,1.142
669.946,1.146
670.211,1.153
670.475,1.159
670.739,1.165
671.004,1.172
671.268,1.187
671.532,1.201
671.796,1.196
672.060,1.183
672.324,1.170
672.588,1.172
672.852,1.181
673.116,1.205
673.380,1.222
673.644,1.205
673.908,1.173
674.172,1.147
674.436,1.146
674.700,1.147
674.963,1.151
675.227,1.153
675.491,1.152
675.754,1.150
676.018,1.149
676.282,1.150
676.545,1.146
676.809,1.139
677.072,1.131
677.336,1.129
677.599,1.130
677.863,1.130
678.126,1.130
678.389,1.136
678.653,1.145
678.916,1.149
679.179,1.145
679.442,1.145
679.706,1.148
679.969,1.150
680.232,1.151
680.495,1.156
680.758,1.158
681.021,1.153
681.284,1.141
681.547,1.135
681.810,1.138
682.073,1.144
682.336,1.148
682.599,1.146
682.862,1.143
683.125,1.144
683.388,1.149
683.651,1.153
683.913,1.154
684.176,1.150
684.439,1.140
684.702,1.130
684.964,1.126
685.227,1.129
685.490,1.141
685.752,1.153
686.015,1.157
686.277,1.152
686.540,1.144
686.802,1.139
687.065,1.139
687.327,1.141
687.590,1.146
687.852,1.146
688.115,1.142
688.377,1.138
688.639,1.136
688.902,1.138
689.164,1.138
689.426,1.142
689.689,1.144
689.951,1.143
690.213,1.141
690.475,1.139
690.737,1.139
691.000,1.139
691.262,1.142
691.524,1.148
691.786,1.157
692.048,1.164
692.310,1.161
692.572,1.147
692.834,1.133
693.096,1.127
693.358,1.133
693.620,1.143
693.882,1.151
694.144,1.151
694.406,1.148
694.668,1.143
694.930,1.138
695.192,1.136
695.453,1.138
695.715,1.145
695.977,1.146
696.239,1.143
696.501,1.143
696.762,1.147
697.024,1.148
697.286,1.144
697.548,1.139
697.809,1.137
698.071,1.133
698.333,1.129
698.594,1.127
698.856,1.133
699.118,1.138
699.379,1.140
699.641,1.142
699.902,1.146
700.164,1.147
700.426,1.143
700.687,1.138
700.949,1.137
701.210,1.138
701.472,1.137
701.733,1.134
701.995,1.136
702.256,1.137
702.518,1.134
702.779,1.128
703.041,1.134
703.302,1.145
703.563,1.151
703.825,1.147
704.086,1.141
704.348,1.137
704.609,1.138
704.871,1.143
705.132,1.147
705.393,1.143
705.655,1.139
705.916,1.139
706.177,1.142
706.439,1.141
706.700,1.134
706.961,1.126
707.223,1.122
707.484,1.117
707.745,1.109
708.007,1.099
708.268,1.090
708.529,1.084
708.790,1.079
709.052,1.080
709.313,1.084
709.574,1.089
709.835,1.091
710.097,1.089
710.358,1.082
710.619,1.076
710.881,1.071
711.142,1.066
711.403,1.062
711.664,1.062
711.926,1.062
712.187,1.065
712.448,1.069
712.709,1.077
712.970,1.080
713.232,1.078
713.493,1.075
713.754,1.074
714.015,1.076
714.277,1.081
714.538,1.091
714.799,1.102
715.060,1.109
715.322,1.105
715.583,1.097
715.844,1.089
716.105,1.082
716.367,1.075
716.628,1.074
716.889,1.077
717.150,1.079
717.411,1.078
717.673,1.080
717.934,1.085
718.195,1.087
718.457,1.083
718.718,1.075
718.979,1.072
719.240,1.074
719.502,1.080
719.763,1.087
720.024,1.089
720.286,1.085
720.547,1.077
720.808,1.073
721.069,1.076
721.331,1.083
721.592,1.091
721.853,1.094
722.115,1.094
722.376,1.092
722.638,1.087
722.899,1.083
723.160,1.078
723.422,1.074
723.683,1.073
723.944,1.073
724.206,1.075
724.467,1.077
724.729,1.079
724.990,1.083
725.252,1.085
725.513,1.079
725.775,1.070
726.036,1.065
726.298,1.068
726.559,1.073
726.821,1.078
727.082,1.083
727.344,1.085
727.605,1.082
727.867,1.074
728.128,1.069
728.390,1.066
728.652,1.071
728.913,1.080
729.175,1.087
729.436,1.089
729.698,1.087
729.960,1.084
730.221,1.078
730.483,1.073
730.745,1.074
731.007,1.076
731.268,1.076
731.530,1.071
731.792,1.069
732.054,1.066
732.315,1.067
732.577,1.067
732.839,1.064
733.101,1.061
733.363,1.062
733.625,1.070
733.887,1.078
734.149,1.081
734.411,1.080
734.673,1.080
734.935,1.082
735.197,1.083
735.459,1.084
735.721,1.085
735.983,1.080
736.245,1.072
736.507,1.069
736.769,1.073
737.031,1.077
737.293,1.074
737.555,1.067
737.818,1.062
738.080,1.061
738.342,1.062
738.604,1.060
738.867,1.063
739.129,1.067
739.391,1.071
739.654,1.072
739.916,1.071
740.178,1.073
740.441,1.076
740.703,1.075
740.966,1.069
741.228,1.062
741.491,1.060
741.753,1.063
742.016,1.067
742.278,1.072
742.541,1.075
742.804,1.079
743.066,1.080
743.329,1.078
743.592,1.075
743.854,1.075
744.117,1.079
744.380,1.083
744.643,1.083
744.905,1.081
745.168,1.079
745.431,1.079
745.694,1.077
745.957,1.075
746.220,1.069
746.483,1.063
746.746,1.061
747.009,1.068
747.272,1.081
747.535,1.091
