Wavelength (nm),Intensity ββ6.1,,C:\Users\Brend\Desktop\LED Spectras v2\Blinds\-Interference\Spectrometer Data (Alt).sp,,,ββ6.1,
379.792,1.486,,2018-07-11 15:06:04,,Integration Time,100 ms,
380.000,1.480,,Analyze Light,,Number of Scans to Average,25,
380.209,1.477,,,,Smoothing,1,
380.418,1.484
380.627,1.499
380.837,1.516
381.048,1.525
381.259,1.529
381.471,1.529
381.683,1.531
381.896,1.534
382.110,1.530
382.324,1.534
382.538,1.540
382.753,1.549
382.969,1.545
383.185,1.543
383.402,1.543
383.619,1.554
383.837,1.566
384.055,1.579
384.274,1.590
384.493,1.597
384.712,1.603
384.932,1.604
385.153,1.607
385.374,1.610
385.596,1.613
385.818,1.620
386.040,1.631
386.263,1.640
386.487,1.645
386.710,1.643
386.935,1.639
387.159,1.637
387.385,1.639
387.610,1.640
387.836,1.637
388.063,1.639
388.289,1.646
388.517,1.653
388.744,1.657
388.972,1.663
389.201,1.669
389.430,1.671
389.659,1.672
389.889,1.675
390.119,1.680
390.349,1.687
390.580,1.695
390.811,1.705
391.042,1.711
391.274,1.712
391.507,1.713
391.739,1.714
391.972,1.712
392.205,1.713
392.439,1.720
392.673,1.731
392.907,1.742
393.142,1.752
393.377,1.760
393.612,1.767
393.848,1.770
394.084,1.773
394.320,1.771
394.557,1.774
394.794,1.779
395.031,1.791
395.269,1.798
395.507,1.803
395.745,1.800
395.983,1.804
396.222,1.811
396.461,1.825
396.700,1.839
396.940,1.848
397.180,1.852
397.420,1.850
397.660,1.847
397.901,1.845
398.142,1.846
398.383,1.846
398.625,1.846
398.866,1.850
399.108,1.864
399.351,1.884
399.593,1.892
399.836,1.891
400.079,1.885
400.322,1.885
400.566,1.886
400.809,1.890
401.053,1.896
401.298,1.902
401.542,1.906
401.787,1.913
402.031,1.921
402.277,1.930
402.522,1.938
402.767,1.946
403.013,1.944
403.259,1.941
403.505,1.936
403.752,1.942
403.998,1.944
404.245,1.954
404.492,1.964
404.739,1.975
404.986,1.979
405.234,1.979
405.482,1.977
405.730,1.975
405.978,1.977
406.226,1.980
406.475,1.980
406.723,1.976
406.972,1.979
407.221,1.989
407.470,2.002
407.720,2.013
407.969,2.015
408.219,2.023
408.469,2.027
408.719,2.034
408.969,2.033
409.219,2.040
409.470,2.046
409.720,2.058
409.971,2.067
410.222,2.078
410.473,2.084
410.724,2.087
410.976,2.093
411.227,2.100
411.479,2.104
411.731,2.105
411.983,2.103
412.235,2.105
412.487,2.103
412.740,2.107
412.992,2.108
413.245,2.115
413.497,2.116
413.750,2.119
414.003,2.118
414.257,2.121
414.510,2.127
414.763,2.141
415.017,2.154
415.270,2.160
415.524,2.157
415.778,2.153
416.032,2.148
416.286,2.151
416.540,2.155
416.794,2.164
417.049,2.164
417.303,2.167
417.558,2.167
417.812,2.168
418.067,2.166
418.322,2.167
418.577,2.167
418.832,2.164
419.088,2.156
419.343,2.160
419.598,2.163
419.854,2.172
420.109,2.177
420.365,2.187
420.621,2.190
420.876,2.194
421.132,2.194
421.388,2.197
421.645,2.197
421.901,2.203
422.157,2.209
422.413,2.212
422.670,2.208
422.926,2.210
423.183,2.208
423.439,2.214
423.696,2.222
423.953,2.244
424.210,2.264
424.467,2.274
424.724,2.272
424.981,2.268
425.238,2.272
425.495,2.287
425.753,2.302
426.010,2.314
426.267,2.321
426.525,2.337
426.782,2.355
427.040,2.379
427.298,2.401
427.555,2.433
427.813,2.467
428.071,2.498
428.329,2.524
428.587,2.553
428.845,2.586
429.103,2.625
429.361,2.660
429.619,2.699
429.878,2.736
430.136,2.783
430.394,2.830
430.653,2.897
430.911,2.969
431.170,3.051
431.428,3.122
431.687,3.195
431.946,3.266
432.204,3.347
432.463,3.434
432.722,3.527
432.981,3.620
433.240,3.723
433.499,3.837
433.758,3.967
434.017,4.090
434.276,4.220
434.535,4.346
434.794,4.489
435.053,4.635
435.312,4.794
435.572,4.953
435.831,5.124
436.090,5.301
436.350,5.488
436.609,5.674
436.869,5.872
437.128,6.081
437.388,6.302
437.647,6.528
437.907,6.766
438.166,7.007
438.426,7.260
438.686,7.516
438.946,7.791
439.205,8.068
439.465,8.362
439.725,8.658
439.985,8.971
440.245,9.281
440.505,9.602
440.765,9.928
441.025,10.273
441.285,10.632
441.545,11.000
441.805,11.374
442.065,11.756
442.325,12.158
442.585,12.585
442.846,13.022
443.106,13.479
443.366,13.956
443.626,14.457
443.887,14.971
444.147,15.504
444.407,16.051
444.668,16.621
444.928,17.205
445.189,17.824
445.449,18.476
445.710,19.161
445.970,19.891
446.231,20.654
446.491,21.460
446.752,22.282
447.012,23.138
447.273,24.033
447.534,24.971
447.794,25.954
448.055,26.969
448.316,28.048
448.577,29.173
448.837,30.359
449.098,31.589
449.359,32.865
449.620,34.163
449.881,35.491
450.142,36.855
450.403,38.285
450.664,39.766
450.924,41.298
451.185,42.869
451.446,44.468
451.707,46.087
451.969,47.722
452.230,49.383
452.491,51.052
452.752,52.709
453.013,54.337
453.274,55.937
453.535,57.503
453.796,59.015
454.058,60.480
454.319,61.875
454.580,63.193
454.841,64.403
455.103,65.516
455.364,66.529
455.625,67.453
455.887,68.285
456.148,69.004
456.409,69.593
456.671,70.030
456.932,70.316
457.194,70.450
457.455,70.439
457.716,70.286
457.978,70.022
458.239,69.649
458.501,69.163
458.763,68.552
459.024,67.811
459.286,66.966
459.547,65.993
459.809,64.897
460.071,63.703
460.332,62.449
460.594,61.157
460.856,59.832
461.117,58.477
461.379,57.109
461.641,55.717
461.903,54.308
462.164,52.898
462.426,51.517
462.688,50.179
462.950,48.882
463.212,47.608
463.474,46.355
463.736,45.129
463.998,43.959
464.260,42.860
464.522,41.837
464.784,40.866
465.046,39.958
465.308,39.100
465.570,38.302
465.832,37.552
466.094,36.844
466.356,36.168
466.618,35.519
466.880,34.897
467.142,34.308
467.405,33.737
467.667,33.189
467.929,32.659
468.191,32.161
468.454,31.662
468.716,31.169
468.978,30.668
469.241,30.182
469.503,29.692
469.765,29.219
470.028,28.765
470.290,28.327
470.552,27.889
470.815,27.448
471.077,26.990
471.340,26.520
471.602,26.036
471.865,25.559
472.128,25.072
472.390,24.592
472.653,24.111
472.915,23.627
473.178,23.142
473.441,22.654
473.703,22.156
473.966,21.639
474.229,21.110
474.492,20.581
474.755,20.054
475.017,19.546
475.280,19.046
475.543,18.554
475.806,18.052
476.069,17.555
476.332,17.056
476.595,16.577
476.858,16.113
477.121,15.662
477.384,15.217
477.647,14.794
477.910,14.381
478.173,13.978
478.436,13.580
478.699,13.207
478.962,12.848
479.226,12.506
479.489,12.171
479.752,11.857
480.015,11.557
480.279,11.261
480.542,10.953
480.805,10.654
481.069,10.372
481.332,10.116
481.595,9.863
481.859,9.638
482.122,9.409
482.386,9.190
482.649,8.960
482.913,8.748
483.177,8.535
483.440,8.333
483.704,8.133
483.967,7.951
484.231,7.773
484.495,7.608
484.759,7.438
485.022,7.271
485.286,7.096
485.550,6.926
485.814,6.753
486.078,6.594
486.342,6.440
486.606,6.297
486.869,6.147
487.133,6.006
487.397,5.868
487.662,5.738
487.926,5.598
488.190,5.467
488.454,5.325
488.718,5.186
488.982,5.033
489.246,4.899
489.511,4.765
489.775,4.639
490.039,4.508
490.304,4.382
490.568,4.256
490.832,4.139
491.097,4.030
491.361,3.935
491.626,3.839
491.890,3.745
492.155,3.645
492.419,3.548
492.684,3.447
492.949,3.353
493.213,3.265
493.478,3.188
493.743,3.100
494.008,3.004
494.272,2.912
494.537,2.844
494.802,2.784
495.067,2.730
495.332,2.671
495.597,2.616
495.862,2.558
496.127,2.509
496.392,2.458
496.657,2.409
496.922,2.353
497.187,2.302
497.452,2.257
497.718,2.227
497.983,2.201
498.248,2.173
498.513,2.135
498.779,2.103
499.044,2.075
499.310,2.046
499.575,2.011
499.841,1.982
500.106,1.955
500.372,1.930
500.637,1.907
500.903,1.894
501.168,1.879
501.434,1.856
501.700,1.828
501.966,1.806
502.231,1.784
502.497,1.764
502.763,1.740
503.029,1.719
503.295,1.700
503.561,1.684
503.827,1.673
504.093,1.663
504.359,1.653
504.625,1.641
504.891,1.627
505.157,1.620
505.423,1.606
505.690,1.590
505.956,1.569
506.222,1.558
506.489,1.558
506.755,1.563
507.021,1.561
507.288,1.548
507.554,1.525
507.821,1.508
508.087,1.497
508.354,1.496
508.621,1.488
508.887,1.476
509.154,1.462
509.421,1.457
509.687,1.450
509.954,1.442
510.221,1.433
510.488,1.429
510.755,1.425
511.022,1.421
511.289,1.414
511.556,1.409
511.823,1.405
512.090,1.406
512.357,1.402
512.624,1.395
512.891,1.384
513.159,1.374
513.426,1.368
513.693,1.365
513.960,1.365
514.228,1.365
514.495,1.361
514.763,1.353
515.030,1.344
515.298,1.337
515.565,1.334
515.833,1.330
516.100,1.325
516.368,1.320
516.636,1.320
516.904,1.322
517.171,1.320
517.439,1.314
517.707,1.304
517.975,1.299
518.243,1.298
518.511,1.297
518.779,1.291
519.047,1.291
519.315,1.290
519.583,1.287
519.851,1.275
520.119,1.268
520.387,1.263
520.656,1.260
520.924,1.262
521.192,1.264
521.461,1.269
521.729,1.272
521.997,1.279
522.266,1.282
522.534,1.281
522.803,1.279
523.071,1.276
523.340,1.270
523.609,1.258
523.877,1.249
524.146,1.243
524.415,1.245
524.684,1.247
524.952,1.247
525.221,1.244
525.490,1.244
525.759,1.248
526.028,1.247
526.297,1.241
526.566,1.234
526.835,1.231
527.104,1.233
527.373,1.236
527.642,1.237
527.912,1.232
528.181,1.225
528.450,1.220
528.719,1.223
528.989,1.230
529.258,1.237
529.528,1.237
529.797,1.232
530.067,1.227
530.336,1.224
530.606,1.219
530.875,1.213
531.145,1.207
531.414,1.206
531.684,1.210
531.954,1.216
532.224,1.214
532.493,1.206
532.763,1.200
533.033,1.200
533.303,1.202
533.573,1.204
533.843,1.202
534.113,1.199
534.383,1.196
534.653,1.199
534.923,1.204
535.193,1.208
535.463,1.211
535.733,1.212
536.004,1.216
536.274,1.218
536.544,1.215
536.814,1.209
537.085,1.201
537.355,1.200
537.626,1.203
537.896,1.208
538.166,1.206
538.437,1.200
538.707,1.195
538.978,1.193
539.249,1.196
539.519,1.197
539.790,1.192
540.061,1.186
540.331,1.187
540.602,1.193
540.873,1.200
541.144,1.202
541.414,1.202
541.685,1.201
541.956,1.200
542.227,1.199
542.498,1.198
542.769,1.197
543.040,1.198
543.311,1.198
543.582,1.200
543.853,1.200
544.124,1.201
544.396,1.201
544.667,1.202
544.938,1.198
545.209,1.186
545.480,1.176
545.752,1.176
546.023,1.189
546.294,1.196
546.566,1.195
546.837,1.185
547.109,1.176
547.380,1.170
547.652,1.166
547.923,1.166
548.195,1.174
548.466,1.188
548.738,1.200
549.009,1.200
549.281,1.193
549.553,1.184
549.824,1.175
550.096,1.171
550.368,1.171
550.640,1.177
550.911,1.183
551.183,1.191
551.455,1.201
551.727,1.207
551.999,1.203
552.271,1.192
552.543,1.184
552.815,1.181
553.087,1.184
553.359,1.187
553.631,1.190
553.903,1.188
554.175,1.189
554.447,1.193
554.719,1.195
554.991,1.196
555.263,1.194
555.535,1.191
555.808,1.186
556.080,1.180
556.352,1.181
556.624,1.183
556.897,1.186
557.169,1.184
557.441,1.180
557.714,1.174
557.986,1.172
558.258,1.171
558.531,1.175
558.803,1.181
559.076,1.186
559.348,1.182
559.621,1.176
559.893,1.176
560.166,1.179
560.438,1.179
560.711,1.173
560.983,1.171
561.256,1.172
561.528,1.177
561.801,1.181
562.074,1.185
562.346,1.189
562.619,1.195
562.892,1.194
563.164,1.191
563.437,1.189
563.710,1.187
563.983,1.181
564.255,1.175
564.528,1.176
564.801,1.182
565.074,1.185
565.346,1.179
565.619,1.174
565.892,1.175
566.165,1.178
566.438,1.175
566.711,1.171
566.984,1.169
567.257,1.173
567.529,1.179
567.802,1.185
568.075,1.187
568.348,1.185
568.621,1.182
568.894,1.176
569.167,1.171
569.440,1.166
569.713,1.160
569.986,1.158
570.259,1.158
570.532,1.164
570.805,1.170
571.078,1.174
571.351,1.174
571.625,1.172
571.898,1.167
572.171,1.160
572.444,1.156
572.717,1.157
572.990,1.162
573.263,1.163
573.536,1.160
573.809,1.156
574.083,1.155
574.356,1.160
574.629,1.166
574.902,1.170
575.175,1.168
575.448,1.162
575.721,1.159
575.995,1.159
576.268,1.161
576.541,1.163
576.814,1.166
577.087,1.167
577.361,1.165
577.634,1.163
577.907,1.159
578.180,1.156
578.453,1.155
578.727,1.153
579.000,1.151
579.273,1.151
579.546,1.158
579.820,1.168
580.093,1.171
580.366,1.164
580.639,1.154
580.913,1.151
581.186,1.153
581.459,1.157
581.732,1.157
582.005,1.157
582.279,1.156
582.552,1.157
582.825,1.155
583.098,1.155
583.372,1.156
583.645,1.157
583.918,1.157
584.191,1.155
584.464,1.152
584.738,1.153
585.011,1.154
585.284,1.157
585.557,1.156
585.831,1.153
586.104,1.156
586.377,1.164
586.650,1.172
586.923,1.174
587.196,1.171
587.470,1.163
587.743,1.158
588.016,1.156
588.289,1.159
588.562,1.162
588.835,1.161
589.109,1.159
589.382,1.155
589.655,1.153
589.928,1.148
590.201,1.145
590.474,1.148
590.747,1.156
591.020,1.161
591.293,1.163
591.567,1.164
591.840,1.162
592.113,1.157
592.386,1.152
592.659,1.151
592.932,1.154
593.205,1.157
593.478,1.158
593.751,1.158
594.024,1.157
594.297,1.151
594.570,1.150
594.843,1.153
595.116,1.161
595.389,1.163
595.662,1.158
595.934,1.155
596.207,1.155
596.480,1.158
596.753,1.160
597.026,1.158
597.299,1.155
597.572,1.151
597.844,1.148
598.117,1.143
598.390,1.138
598.663,1.135
598.936,1.139
599.208,1.144
599.481,1.150
599.754,1.151
600.026,1.147
600.299,1.143
600.572,1.141
600.844,1.141
601.117,1.139
601.390,1.137
601.662,1.136
601.935,1.134
602.207,1.134
602.480,1.138
602.752,1.140
603.025,1.139
603.297,1.138
603.570,1.144
603.842,1.153
604.115,1.158
604.387,1.158
604.660,1.155
604.932,1.151
605.204,1.151
605.477,1.153
605.749,1.159
606.021,1.163
606.294,1.161
606.566,1.155
606.838,1.151
607.110,1.152
607.383,1.153
607.655,1.151
607.927,1.150
608.199,1.153
608.471,1.156
608.743,1.154
609.015,1.150
609.287,1.146
609.559,1.144
609.831,1.143
610.103,1.141
610.375,1.136
610.647,1.131
610.919,1.131
611.191,1.138
611.463,1.147
611.735,1.149
612.007,1.143
612.278,1.137
612.550,1.138
612.822,1.143
613.094,1.147
613.365,1.147
613.637,1.149
613.909,1.152
614.180,1.155
614.452,1.154
614.723,1.152
614.995,1.148
615.266,1.144
615.538,1.145
615.809,1.146
616.081,1.145
616.352,1.142
616.623,1.139
616.895,1.138
617.166,1.136
617.437,1.134
617.709,1.134
617.980,1.135
618.251,1.140
618.522,1.147
618.793,1.157
619.065,1.165
619.336,1.164
619.607,1.156
619.878,1.152
620.149,1.155
620.420,1.157
620.691,1.157
620.962,1.159
621.232,1.162
621.503,1.156
621.774,1.149
622.045,1.146
622.316,1.150
622.586,1.154
622.857,1.157
623.128,1.155
623.398,1.152
623.669,1.144
623.940,1.137
624.210,1.131
624.481,1.136
624.751,1.144
625.021,1.148
625.292,1.147
625.562,1.147
625.833,1.146
626.103,1.140
626.373,1.132
626.643,1.128
626.914,1.132
627.184,1.135
627.454,1.138
627.724,1.138
627.994,1.138
628.264,1.137
628.534,1.133
628.804,1.133
629.074,1.141
629.344,1.149
629.614,1.150
629.884,1.144
630.154,1.137
630.424,1.133
630.693,1.127
630.963,1.119
631.233,1.114
631.502,1.117
631.772,1.128
632.041,1.137
632.311,1.143
632.581,1.142
632.850,1.138
633.119,1.131
633.389,1.123
633.658,1.120
633.928,1.120
634.197,1.126
634.466,1.135
634.735,1.143
635.004,1.144
635.274,1.140
635.543,1.132
635.812,1.128
636.081,1.126
636.350,1.130
636.619,1.136
636.888,1.138
637.157,1.139
637.426,1.140
637.694,1.141
637.963,1.139
638.232,1.133
638.501,1.130
638.769,1.132
639.038,1.139
639.307,1.147
639.575,1.151
639.844,1.148
640.112,1.138
640.381,1.129
640.649,1.126
640.917,1.128
641.186,1.132
641.454,1.137
641.722,1.141
641.991,1.141
642.259,1.136
642.527,1.132
642.795,1.129
643.063,1.126
643.331,1.124
643.599,1.128
643.867,1.135
644.135,1.139
644.403,1.140
644.671,1.140
644.939,1.142
645.206,1.143
645.474,1.145
645.742,1.139
646.009,1.132
646.277,1.125
646.545,1.126
646.812,1.133
647.080,1.143
647.347,1.149
647.615,1.146
647.882,1.135
648.149,1.126
648.417,1.122
648.684,1.127
648.951,1.136
649.219,1.146
649.486,1.149
649.753,1.146
650.020,1.137
650.287,1.129
650.554,1.124
650.821,1.123
651.088,1.125
651.355,1.130
651.622,1.134
651.889,1.134
652.155,1.130
652.422,1.127
652.689,1.127
652.956,1.129
653.222,1.134
653.489,1.144
653.755,1.150
654.022,1.150
654.288,1.143
654.555,1.138
654.821,1.140
655.088,1.144
655.354,1.152
655.620,1.158
655.887,1.161
656.153,1.159
656.419,1.152
656.685,1.148
656.951,1.146
657.217,1.147
657.483,1.143
657.749,1.138
658.015,1.134
658.281,1.133
658.547,1.129
658.813,1.124
659.079,1.119
659.345,1.121
659.610,1.123
659.876,1.126
660.142,1.127
660.407,1.126
660.673,1.124
660.939,1.124
661.204,1.122
661.470,1.123
661.735,1.124
662.000,1.127
662.266,1.128
662.531,1.125
662.796,1.123
663.062,1.120
663.327,1.119
663.592,1.120
663.857,1.126
664.122,1.129
664.388,1.129
664.653,1.129
664.918,1.130
665.183,1.130
665.448,1.134
665.712,1.140
665.977,1.146
666.242,1.144
666.507,1.131
666.772,1.118
667.037,1.112
667.301,1.116
667.566,1.120
667.831,1.121
668.095,1.124
668.360,1.127
668.624,1.129
668.889,1.131
669.153,1.131
669.418,1.130
669.682,1.125
669.946,1.127
670.211,1.133
670.475,1.140
670.739,1.146
671.004,1.152
671.268,1.166
671.532,1.175
671.796,1.168
672.060,1.152
672.324,1.140
672.588,1.145
672.852,1.158
673.116,1.185
673.380,1.205
673.644,1.196
673.908,1.167
674.172,1.141
674.436,1.134
674.700,1.131
674.963,1.132
675.227,1.135
675.491,1.133
675.754,1.127
676.018,1.124
676.282,1.127
676.545,1.130
676.809,1.128
677.072,1.123
677.336,1.122
677.599,1.126
677.863,1.126
678.126,1.126
678.389,1.130
678.653,1.137
678.916,1.139
679.179,1.133
679.442,1.130
679.706,1.131
679.969,1.133
680.232,1.134
680.495,1.137
680.758,1.142
681.021,1.140
681.284,1.132
681.547,1.126
681.810,1.129
682.073,1.137
682.336,1.142
682.599,1.140
682.862,1.135
683.125,1.136
683.388,1.138
683.651,1.138
683.913,1.133
684.176,1.125
684.439,1.116
684.702,1.111
684.964,1.109
685.227,1.109
685.490,1.116
685.752,1.125
686.015,1.130
686.277,1.130
686.540,1.123
686.802,1.120
687.065,1.120
687.327,1.127
687.590,1.131
687.852,1.128
688.115,1.117
688.377,1.112
688.639,1.111
688.902,1.116
689.164,1.121
689.426,1.129
689.689,1.133
689.951,1.132
690.213,1.129
690.475,1.130
690.737,1.133
691.000,1.135
691.262,1.133
691.524,1.134
691.786,1.138
692.048,1.144
692.310,1.140
692.572,1.126
692.834,1.115
693.096,1.116
693.358,1.124
693.620,1.131
693.882,1.137
694.144,1.138
694.406,1.134
694.668,1.129
694.930,1.123
695.192,1.119
695.453,1.116
695.715,1.116
695.977,1.117
696.239,1.117
696.501,1.118
696.762,1.123
697.024,1.124
697.286,1.119
697.548,1.116
697.809,1.118
698.071,1.120
698.333,1.118
698.594,1.117
698.856,1.122
699.118,1.129
699.379,1.134
699.641,1.139
699.902,1.140
700.164,1.138
700.426,1.133
700.687,1.128
700.949,1.123
701.210,1.121
701.472,1.117
701.733,1.118
701.995,1.118
702.256,1.120
702.518,1.116
702.779,1.115
703.041,1.120
703.302,1.128
703.563,1.126
703.825,1.118
704.086,1.113
704.348,1.114
704.609,1.120
704.871,1.129
705.132,1.134
705.393,1.130
705.655,1.122
705.916,1.116
706.177,1.115
706.439,1.116
706.700,1.115
706.961,1.113
707.223,1.105
707.484,1.093
707.745,1.079
708.007,1.070
708.268,1.066
708.529,1.065
708.790,1.061
709.052,1.060
709.313,1.060
709.574,1.061
709.835,1.061
710.097,1.053
710.358,1.042
710.619,1.029
710.881,1.020
711.142,1.014
711.403,1.013
711.664,1.014
711.926,1.017
712.187,1.019
712.448,1.024
712.709,1.030
712.970,1.037
713.232,1.042
713.493,1.043
713.754,1.040
714.015,1.040
714.277,1.043
714.538,1.052
714.799,1.062
715.060,1.066
715.322,1.062
715.583,1.053
715.844,1.044
716.105,1.035
716.367,1.028
716.628,1.027
716.889,1.028
717.150,1.028
717.411,1.025
717.673,1.025
717.934,1.028
718.195,1.032
718.457,1.027
718.718,1.019
718.979,1.015
719.240,1.019
719.502,1.026
719.763,1.029
720.024,1.030
720.286,1.029
720.547,1.026
720.808,1.023
721.069,1.024
721.331,1.030
721.592,1.036
721.853,1.038
722.115,1.040
722.376,1.040
722.638,1.039
722.899,1.034
723.160,1.025
723.422,1.018
723.683,1.017
723.944,1.019
724.206,1.021
724.467,1.022
724.729,1.025
724.990,1.032
725.252,1.035
725.513,1.032
725.775,1.025
726.036,1.018
726.298,1.018
726.559,1.022
726.821,1.026
727.082,1.026
727.344,1.023
727.605,1.018
727.867,1.016
728.128,1.016
728.390,1.019
728.652,1.024
728.913,1.028
729.175,1.030
729.436,1.031
729.698,1.032
729.960,1.031
730.221,1.026
730.483,1.019
730.745,1.017
731.007,1.018
731.268,1.022
731.530,1.027
731.792,1.028
732.054,1.031
732.315,1.034
732.577,1.034
732.839,1.028
733.101,1.020
733.363,1.017
733.625,1.019
733.887,1.023
734.149,1.025
734.411,1.028
734.673,1.031
734.935,1.032
735.197,1.032
735.459,1.032
735.721,1.030
735.983,1.022
736.245,1.014
736.507,1.013
736.769,1.021
737.031,1.026
737.293,1.021
737.555,1.010
737.818,1.002
738.080,1.001
738.342,1.003
738.604,1.006
738.867,1.008
739.129,1.007
739.391,1.004
739.654,1.004
739.916,1.004
740.178,1.009
740.441,1.014
740.703,1.018
740.966,1.017
741.228,1.014
741.491,1.012
741.753,1.013
742.016,1.014
742.278,1.016
742.541,1.017
742.804,1.019
743.066,1.022
743.329,1.023
743.592,1.023
743.854,1.024
744.117,1.029
744.380,1.033
744.643,1.030
744.905,1.027
745.168,1.024
745.431,1.024
745.694,1.022
745.957,1.021
746.220,1.019
746.483,1.018
746.746,1.017
747.009,1.021
747.272,1.031
