Wavelength (nm),Intensity B12,,C:/Users/Brend/Desktop/LED Spectras v2/Spectrometer Data (Blue Condensed).sp,,,B12,
379.792,1.744,,2018-06-26 15:20:20,,Integration Time,144 ms,
380.000,1.739,,Analyze Light,,Number of Scans to Average,25,
380.209,1.738,,,,Smoothing,1,
380.418,1.747
380.627,1.761
380.837,1.775
381.048,1.782
381.259,1.779
381.471,1.773
381.683,1.775
381.896,1.786
382.110,1.794
382.324,1.805
382.538,1.818
382.753,1.827
382.969,1.819
383.185,1.807
383.402,1.802
383.619,1.809
383.837,1.823
384.055,1.844
384.274,1.863
384.493,1.874
384.712,1.873
384.932,1.878
385.153,1.884
385.374,1.894
385.596,1.895
385.818,1.904
386.040,1.918
386.263,1.937
386.487,1.947
386.710,1.945
386.935,1.934
387.159,1.926
387.385,1.919
387.610,1.914
387.836,1.912
388.063,1.921
388.289,1.936
388.517,1.946
388.744,1.946
388.972,1.952
389.201,1.957
389.430,1.966
389.659,1.972
389.889,1.984
390.119,1.995
390.349,2.001
390.580,2.009
390.811,2.011
391.042,2.011
391.274,2.009
391.507,2.011
391.739,2.012
391.972,2.008
392.205,2.011
392.439,2.021
392.673,2.033
392.907,2.040
393.142,2.053
393.377,2.067
393.612,2.083
393.848,2.087
394.084,2.094
394.320,2.095
394.557,2.103
394.794,2.107
395.031,2.117
395.269,2.126
395.507,2.137
395.745,2.142
395.983,2.148
396.222,2.155
396.461,2.169
396.700,2.185
396.940,2.197
397.180,2.200
397.420,2.196
397.660,2.192
397.901,2.191
398.142,2.196
398.383,2.198
398.625,2.198
398.866,2.208
399.108,2.233
399.351,2.267
399.593,2.277
399.836,2.272
400.079,2.255
400.322,2.247
400.566,2.241
400.809,2.240
401.053,2.244
401.298,2.253
401.542,2.263
401.787,2.274
402.031,2.285
402.277,2.298
402.522,2.303
402.767,2.310
403.013,2.309
403.259,2.312
403.505,2.317
403.752,2.324
403.998,2.331
404.245,2.342
404.492,2.356
404.739,2.364
404.986,2.366
405.234,2.369
405.482,2.371
405.730,2.368
405.978,2.365
406.226,2.365
406.475,2.363
406.723,2.364
406.972,2.373
407.221,2.390
407.470,2.403
407.720,2.410
407.969,2.406
408.219,2.412
408.469,2.423
408.719,2.444
408.969,2.451
409.219,2.452
409.470,2.450
409.720,2.453
409.971,2.460
410.222,2.477
410.473,2.491
410.724,2.497
410.976,2.501
411.227,2.509
411.479,2.518
411.731,2.526
411.983,2.529
412.235,2.532
412.487,2.528
412.740,2.531
412.992,2.540
413.245,2.555
413.497,2.563
413.750,2.568
414.003,2.564
414.257,2.563
414.510,2.561
414.763,2.575
415.017,2.586
415.270,2.597
415.524,2.597
415.778,2.601
416.032,2.606
416.286,2.622
416.540,2.630
416.794,2.642
417.049,2.648
417.303,2.662
417.558,2.675
417.812,2.686
418.067,2.693
418.322,2.702
418.577,2.701
418.832,2.694
419.088,2.676
419.343,2.674
419.598,2.674
419.854,2.683
420.109,2.689
420.365,2.707
420.621,2.715
420.876,2.727
421.132,2.730
421.388,2.733
421.645,2.726
421.901,2.728
422.157,2.731
422.413,2.743
422.670,2.748
422.926,2.755
423.183,2.746
423.439,2.745
423.696,2.749
423.953,2.779
424.210,2.806
424.467,2.819
424.724,2.813
424.981,2.802
425.238,2.803
425.495,2.819
425.753,2.836
426.010,2.851
426.267,2.860
426.525,2.883
426.782,2.902
427.040,2.924
427.298,2.942
427.555,2.975
427.813,3.002
428.071,3.033
428.329,3.061
428.587,3.098
428.845,3.134
429.103,3.175
429.361,3.212
429.619,3.252
429.878,3.294
430.136,3.347
430.394,3.389
430.653,3.449
430.911,3.513
431.170,3.591
431.428,3.657
431.687,3.728
431.946,3.796
432.204,3.872
432.463,3.950
432.722,4.038
432.981,4.129
433.240,4.238
433.499,4.357
433.758,4.494
434.017,4.618
434.276,4.747
434.535,4.870
434.794,5.015
435.053,5.165
435.312,5.333
435.572,5.498
435.831,5.678
436.090,5.869
436.350,6.088
436.609,6.310
436.869,6.538
437.128,6.756
437.388,6.985
437.647,7.221
437.907,7.483
438.166,7.752
438.426,8.039
438.686,8.330
438.946,8.639
439.205,8.959
439.465,9.305
439.725,9.669
439.985,10.047
440.245,10.416
440.505,10.807
440.765,11.198
441.025,11.600
441.285,11.993
441.545,12.417
441.805,12.853
442.065,13.311
442.325,13.780
442.585,14.288
442.846,14.817
443.106,15.374
443.366,15.940
443.626,16.525
443.887,17.121
444.147,17.739
444.407,18.380
444.668,19.030
444.928,19.699
445.189,20.396
445.449,21.128
445.710,21.892
445.970,22.686
446.231,23.513
446.491,24.389
446.752,25.297
447.012,26.243
447.273,27.229
447.534,28.251
447.794,29.306
448.055,30.386
448.316,31.524
448.577,32.733
448.837,34.026
449.098,35.391
449.359,36.828
449.620,38.316
449.881,39.858
450.142,41.447
450.403,43.113
450.664,44.865
450.924,46.718
451.185,48.641
451.446,50.622
451.707,52.659
451.969,54.764
452.230,56.929
452.491,59.149
452.752,61.403
453.013,63.696
453.274,66.000
453.535,68.330
453.796,70.644
454.058,72.954
454.319,75.228
454.580,77.467
454.841,79.643
455.103,81.683
455.364,83.509
455.625,85.065
455.887,86.357
456.148,87.433
456.409,88.344
456.671,89.130
456.932,89.809
457.194,90.393
457.455,90.889
457.716,91.294
457.978,91.606
458.239,91.838
458.501,92.007
458.763,92.110
459.024,92.145
459.286,92.113
459.547,92.026
459.809,91.877
460.071,91.666
460.332,91.388
460.594,91.041
460.856,90.624
461.117,90.129
461.379,89.542
461.641,88.873
461.903,88.097
462.164,87.223
462.426,86.199
462.688,84.981
462.950,83.518
463.212,81.845
463.474,80.033
463.736,78.151
463.998,76.262
464.260,74.402
464.522,72.620
464.784,70.894
465.046,69.228
465.308,67.625
465.570,66.084
465.832,64.594
466.094,63.153
466.356,61.781
466.618,60.461
466.880,59.171
467.142,57.924
467.405,56.743
467.667,55.650
467.929,54.618
468.191,53.641
468.454,52.703
468.716,51.790
468.978,50.881
469.241,49.987
469.503,49.130
469.765,48.347
470.028,47.606
470.290,46.868
470.552,46.122
470.815,45.370
471.077,44.636
471.340,43.912
471.602,43.230
471.865,42.548
472.128,41.859
472.390,41.143
472.653,40.428
472.915,39.722
473.178,39.011
473.441,38.299
473.703,37.553
473.966,36.794
474.229,35.998
474.492,35.208
474.755,34.400
475.017,33.618
475.280,32.846
475.543,32.099
475.806,31.329
476.069,30.550
476.332,29.752
476.595,28.984
476.858,28.213
477.121,27.459
477.384,26.700
477.647,25.975
477.910,25.253
478.173,24.552
478.436,23.843
478.699,23.171
478.962,22.513
479.226,21.895
479.489,21.290
479.752,20.695
480.015,20.103
480.279,19.525
480.542,18.958
480.805,18.415
481.069,17.884
481.332,17.384
481.595,16.903
481.859,16.470
482.122,16.060
482.386,15.657
482.649,15.241
482.913,14.844
483.177,14.463
483.440,14.100
483.704,13.746
483.967,13.425
484.231,13.130
484.495,12.856
484.759,12.569
485.022,12.271
485.286,11.964
485.550,11.674
485.814,11.377
486.078,11.086
486.342,10.808
486.606,10.573
486.869,10.350
487.133,10.140
487.397,9.926
487.662,9.721
487.926,9.491
488.190,9.270
488.454,9.043
488.718,8.844
488.982,8.633
489.246,8.433
489.511,8.220
489.775,8.014
490.039,7.802
490.304,7.595
490.568,7.384
490.832,7.190
491.097,7.006
491.361,6.837
491.626,6.659
491.890,6.483
492.155,6.297
492.419,6.126
492.684,5.941
492.949,5.769
493.213,5.601
493.478,5.464
493.743,5.318
494.008,5.158
494.272,4.990
494.537,4.852
494.802,4.721
495.067,4.603
495.332,4.481
495.597,4.381
495.862,4.265
496.127,4.158
496.392,4.040
496.657,3.933
496.922,3.821
497.187,3.725
497.452,3.639
497.718,3.571
497.983,3.491
498.248,3.409
498.513,3.317
498.779,3.249
499.044,3.188
499.310,3.116
499.575,3.029
499.841,2.954
500.106,2.894
500.372,2.841
500.637,2.788
500.903,2.752
501.168,2.715
501.434,2.668
501.700,2.603
501.966,2.549
502.231,2.500
502.497,2.460
502.763,2.415
503.029,2.377
503.295,2.342
503.561,2.313
503.827,2.289
504.093,2.267
504.359,2.243
504.625,2.221
504.891,2.192
505.157,2.172
505.423,2.142
505.690,2.112
505.956,2.077
506.222,2.057
506.489,2.050
506.755,2.047
507.021,2.039
507.288,2.023
507.554,1.997
507.821,1.973
508.087,1.952
508.354,1.945
508.621,1.933
508.887,1.916
509.154,1.896
509.421,1.878
509.687,1.859
509.954,1.839
510.221,1.820
510.488,1.813
510.755,1.807
511.022,1.808
511.289,1.796
511.556,1.780
511.823,1.762
512.090,1.759
512.357,1.749
512.624,1.738
512.891,1.720
513.159,1.705
513.426,1.692
513.693,1.685
513.960,1.683
514.228,1.682
514.495,1.677
514.763,1.671
515.030,1.659
515.298,1.646
515.565,1.637
515.833,1.632
516.100,1.626
516.368,1.620
516.636,1.614
516.904,1.616
517.171,1.611
517.439,1.607
517.707,1.596
517.975,1.591
518.243,1.591
518.511,1.591
518.779,1.582
519.047,1.577
519.315,1.573
519.583,1.568
519.851,1.548
520.119,1.528
520.387,1.515
520.656,1.509
520.924,1.508
521.192,1.509
521.461,1.510
521.729,1.516
521.997,1.518
522.266,1.519
522.534,1.516
522.803,1.520
523.071,1.521
523.340,1.509
523.609,1.492
523.877,1.481
524.146,1.481
524.415,1.482
524.684,1.482
524.952,1.474
525.221,1.468
525.490,1.473
525.759,1.487
526.028,1.495
526.297,1.485
526.566,1.473
526.835,1.463
527.104,1.464
527.373,1.467
527.642,1.464
527.912,1.455
528.181,1.441
528.450,1.438
528.719,1.443
528.989,1.458
529.258,1.472
529.528,1.473
529.797,1.461
530.067,1.452
530.336,1.448
530.606,1.446
530.875,1.438
531.145,1.431
531.414,1.433
531.684,1.442
531.954,1.445
532.224,1.437
532.493,1.420
532.763,1.411
533.033,1.412
533.303,1.420
533.573,1.425
533.843,1.418
534.113,1.414
534.383,1.408
534.653,1.410
534.923,1.412
535.193,1.418
535.463,1.426
535.733,1.433
536.004,1.442
536.274,1.447
536.544,1.444
536.814,1.433
537.085,1.419
537.355,1.418
537.626,1.427
537.896,1.436
538.166,1.438
538.437,1.434
538.707,1.427
538.978,1.425
539.249,1.431
539.519,1.436
539.790,1.431
540.061,1.422
540.331,1.425
540.602,1.439
540.873,1.448
541.144,1.450
541.414,1.448
541.685,1.445
541.956,1.440
542.227,1.437
542.498,1.430
542.769,1.424
543.040,1.423
543.311,1.433
543.582,1.444
543.853,1.451
544.124,1.454
544.396,1.457
544.667,1.461
544.938,1.458
545.209,1.437
545.480,1.419
545.752,1.408
546.023,1.417
546.294,1.416
546.566,1.412
546.837,1.402
547.109,1.398
547.380,1.396
547.652,1.395
547.923,1.394
548.195,1.397
548.466,1.407
548.738,1.422
549.009,1.427
549.281,1.424
549.553,1.408
549.824,1.386
550.096,1.370
550.368,1.365
550.640,1.371
550.911,1.380
551.183,1.396
551.455,1.418
551.727,1.432
551.999,1.429
552.271,1.415
552.543,1.402
552.815,1.394
553.087,1.399
553.359,1.407
553.631,1.412
553.903,1.412
554.175,1.414
554.447,1.420
554.719,1.421
554.991,1.418
555.263,1.414
555.535,1.407
555.808,1.398
556.080,1.387
556.352,1.382
556.624,1.379
556.897,1.378
557.169,1.379
557.441,1.379
557.714,1.375
557.986,1.373
558.258,1.374
558.531,1.383
558.803,1.390
559.076,1.395
559.348,1.390
559.621,1.381
559.893,1.374
560.166,1.370
560.438,1.367
560.711,1.363
560.983,1.362
561.256,1.365
561.528,1.377
561.801,1.390
562.074,1.402
562.346,1.410
562.619,1.412
562.892,1.410
563.164,1.405
563.437,1.405
563.710,1.403
563.983,1.390
564.255,1.376
564.528,1.376
564.801,1.390
565.074,1.399
565.346,1.393
565.619,1.383
565.892,1.382
566.165,1.382
566.438,1.374
566.711,1.364
566.984,1.360
567.257,1.360
567.529,1.365
567.802,1.379
568.075,1.391
568.348,1.396
568.621,1.398
568.894,1.397
569.167,1.397
569.440,1.391
569.713,1.376
569.986,1.367
570.259,1.361
570.532,1.368
570.805,1.374
571.078,1.382
571.351,1.386
571.625,1.388
571.898,1.379
572.171,1.367
572.444,1.360
572.717,1.366
572.990,1.377
573.263,1.376
573.536,1.363
573.809,1.346
574.083,1.339
574.356,1.346
574.629,1.362
574.902,1.374
575.175,1.374
575.448,1.363
575.721,1.357
575.995,1.355
576.268,1.357
576.541,1.364
576.814,1.373
577.087,1.381
577.361,1.381
577.634,1.378
577.907,1.368
578.180,1.359
578.453,1.354
578.727,1.355
579.000,1.358
579.273,1.363
579.546,1.371
579.820,1.382
580.093,1.385
580.366,1.380
580.639,1.370
580.913,1.368
581.186,1.368
581.459,1.367
581.732,1.357
582.005,1.348
582.279,1.341
582.552,1.344
582.825,1.349
583.098,1.355
583.372,1.358
583.645,1.357
583.918,1.358
584.191,1.361
584.464,1.362
584.738,1.360
585.011,1.357
585.284,1.356
585.557,1.354
585.831,1.357
586.104,1.368
586.377,1.389
586.650,1.402
586.923,1.400
587.196,1.389
587.470,1.374
587.743,1.365
588.016,1.360
588.289,1.366
588.562,1.371
588.835,1.370
589.109,1.361
589.382,1.352
589.655,1.346
589.928,1.342
590.201,1.342
590.474,1.350
590.747,1.363
591.020,1.377
591.293,1.381
591.567,1.379
591.840,1.371
592.113,1.364
592.386,1.354
592.659,1.343
592.932,1.340
593.205,1.345
593.478,1.348
593.751,1.345
594.024,1.343
594.297,1.342
594.570,1.340
594.843,1.340
595.116,1.345
595.389,1.350
595.662,1.348
595.934,1.348
596.207,1.354
596.480,1.364
596.753,1.372
597.026,1.373
597.299,1.373
597.572,1.371
597.844,1.364
598.117,1.351
598.390,1.341
598.663,1.339
598.936,1.344
599.208,1.350
599.481,1.354
599.754,1.357
600.026,1.353
600.299,1.345
600.572,1.338
600.844,1.335
601.117,1.332
601.390,1.331
601.662,1.331
601.935,1.331
602.207,1.332
602.480,1.336
602.752,1.341
603.025,1.337
603.297,1.334
603.570,1.340
603.842,1.353
604.115,1.359
604.387,1.361
604.660,1.356
604.932,1.354
605.204,1.355
605.477,1.362
605.749,1.374
606.021,1.384
606.294,1.387
606.566,1.377
606.838,1.371
607.110,1.369
607.383,1.374
607.655,1.377
607.927,1.382
608.199,1.390
608.471,1.392
608.743,1.384
609.015,1.375
609.287,1.370
609.559,1.375
609.831,1.383
610.103,1.387
610.375,1.385
610.647,1.378
610.919,1.368
611.191,1.367
611.463,1.368
611.735,1.367
612.007,1.357
612.278,1.348
612.550,1.347
612.822,1.357
613.094,1.366
613.365,1.369
613.637,1.373
613.909,1.372
614.180,1.372
614.452,1.365
614.723,1.358
614.995,1.350
615.266,1.350
615.538,1.358
615.809,1.367
616.081,1.365
616.352,1.356
616.623,1.347
616.895,1.342
617.166,1.338
617.437,1.337
617.709,1.341
617.980,1.351
618.251,1.362
618.522,1.370
618.793,1.382
619.065,1.395
619.336,1.391
619.607,1.375
619.878,1.363
620.149,1.367
620.420,1.371
620.691,1.366
620.962,1.364
621.232,1.368
621.503,1.365
621.774,1.357
622.045,1.348
622.316,1.354
622.586,1.366
622.857,1.382
623.128,1.389
623.398,1.386
623.669,1.376
623.940,1.361
624.210,1.350
624.481,1.353
624.751,1.359
625.021,1.360
625.292,1.354
625.562,1.354
625.833,1.354
626.103,1.347
626.373,1.338
626.643,1.335
626.914,1.338
627.184,1.343
627.454,1.347
627.724,1.346
627.994,1.345
628.264,1.343
628.534,1.341
628.804,1.340
629.074,1.342
629.344,1.347
629.614,1.354
629.884,1.352
630.154,1.344
630.424,1.332
630.693,1.319
630.963,1.305
631.233,1.293
631.502,1.294
631.772,1.306
632.041,1.322
632.311,1.331
632.581,1.336
632.850,1.335
633.119,1.326
633.389,1.315
633.658,1.310
633.928,1.318
634.197,1.333
634.466,1.348
634.735,1.358
635.004,1.358
635.274,1.351
635.543,1.342
635.812,1.343
636.081,1.346
636.350,1.349
636.619,1.348
636.888,1.347
637.157,1.348
637.426,1.349
637.694,1.348
637.963,1.342
638.232,1.337
638.501,1.332
638.769,1.335
639.038,1.342
639.307,1.354
639.575,1.361
639.844,1.356
640.112,1.347
640.381,1.336
640.649,1.332
640.917,1.332
641.186,1.333
641.454,1.334
641.722,1.331
641.991,1.332
642.259,1.327
642.527,1.327
642.795,1.327
643.063,1.324
643.331,1.321
643.599,1.321
643.867,1.330
644.135,1.336
644.403,1.344
644.671,1.346
644.939,1.351
645.206,1.354
645.474,1.359
645.742,1.353
646.009,1.336
646.277,1.325
646.545,1.325
646.812,1.342
647.080,1.357
647.347,1.365
647.615,1.357
647.882,1.341
648.149,1.326
648.417,1.315
648.684,1.317
648.951,1.329
649.219,1.342
649.486,1.347
649.753,1.342
650.020,1.334
650.287,1.326
650.554,1.321
650.821,1.319
651.088,1.316
651.355,1.322
651.622,1.326
651.889,1.330
652.155,1.328
652.422,1.329
652.689,1.335
652.956,1.340
653.222,1.351
653.489,1.367
653.755,1.375
654.022,1.366
654.288,1.347
654.555,1.339
654.821,1.344
655.088,1.351
655.354,1.354
655.620,1.358
655.887,1.358
656.153,1.362
656.419,1.362
656.685,1.365
656.951,1.365
657.217,1.359
657.483,1.349
657.749,1.337
658.015,1.333
658.281,1.335
658.547,1.334
658.813,1.326
659.079,1.315
659.345,1.309
659.610,1.310
659.876,1.313
660.142,1.316
660.407,1.318
660.673,1.323
660.939,1.328
661.204,1.330
661.470,1.325
661.735,1.322
662.000,1.322
662.266,1.324
662.531,1.324
662.796,1.324
663.062,1.323
663.327,1.320
663.592,1.322
663.857,1.325
664.122,1.326
664.388,1.325
664.653,1.328
664.918,1.334
665.183,1.333
665.448,1.333
665.712,1.337
665.977,1.345
666.242,1.344
666.507,1.328
666.772,1.309
667.037,1.297
667.301,1.301
667.566,1.309
667.831,1.315
668.095,1.321
668.360,1.323
668.624,1.322
668.889,1.323
669.153,1.321
669.418,1.323
669.682,1.322
669.946,1.325
670.211,1.332
670.475,1.340
670.739,1.350
671.004,1.359
671.268,1.382
671.532,1.406
671.796,1.401
672.060,1.381
672.324,1.362
672.588,1.369
672.852,1.382
673.116,1.414
673.380,1.441
673.644,1.422
673.908,1.376
674.172,1.334
674.436,1.335
674.700,1.340
674.963,1.348
675.227,1.350
675.491,1.343
675.754,1.332
676.018,1.327
676.282,1.336
676.545,1.341
676.809,1.334
677.072,1.321
677.336,1.313
677.599,1.317
677.863,1.318
678.126,1.322
678.389,1.329
678.653,1.340
678.916,1.339
679.179,1.328
679.442,1.324
679.706,1.328
679.969,1.335
680.232,1.340
680.495,1.350
680.758,1.356
681.021,1.353
681.284,1.337
681.547,1.326
681.810,1.328
682.073,1.341
682.336,1.350
682.599,1.349
682.862,1.344
683.125,1.347
683.388,1.355
683.651,1.356
683.913,1.349
684.176,1.335
684.439,1.319
684.702,1.306
684.964,1.301
685.227,1.307
685.490,1.317
685.752,1.328
686.015,1.329
686.277,1.328
686.540,1.325
686.802,1.323
687.065,1.325
687.327,1.327
687.590,1.332
687.852,1.328
688.115,1.316
688.377,1.309
688.639,1.310
688.902,1.316
689.164,1.323
689.426,1.334
689.689,1.345
689.951,1.344
690.213,1.336
690.475,1.326
690.737,1.326
691.000,1.325
691.262,1.327
691.524,1.333
691.786,1.344
692.048,1.351
692.310,1.346
692.572,1.328
692.834,1.311
693.096,1.308
693.358,1.322
693.620,1.339
693.882,1.350
694.144,1.350
694.406,1.343
694.668,1.337
694.930,1.329
695.192,1.323
695.453,1.322
695.715,1.325
695.977,1.322
696.239,1.316
696.501,1.316
696.762,1.325
697.024,1.329
697.286,1.322
697.548,1.315
697.809,1.314
698.071,1.313
698.333,1.311
698.594,1.312
698.856,1.321
699.118,1.327
699.379,1.331
699.641,1.333
699.902,1.339
700.164,1.343
700.426,1.343
700.687,1.336
700.949,1.332
701.210,1.329
701.472,1.327
701.733,1.320
701.995,1.319
702.256,1.319
702.518,1.321
702.779,1.319
703.041,1.327
703.302,1.337
703.563,1.337
703.825,1.327
704.086,1.321
704.348,1.320
704.609,1.325
704.871,1.333
705.132,1.343
705.393,1.337
705.655,1.330
705.916,1.327
706.177,1.330
706.439,1.333
706.700,1.332
706.961,1.334
707.223,1.331
707.484,1.318
707.745,1.304
708.007,1.291
708.268,1.284
708.529,1.275
708.790,1.260
709.052,1.251
709.313,1.252
709.574,1.261
709.835,1.268
710.097,1.262
710.358,1.246
710.619,1.230
710.881,1.219
711.142,1.215
711.403,1.214
711.664,1.213
711.926,1.210
712.187,1.214
712.448,1.224
712.709,1.238
712.970,1.246
713.232,1.251
713.493,1.252
713.754,1.251
714.015,1.255
714.277,1.260
714.538,1.269
714.799,1.273
715.060,1.273
715.322,1.267
715.583,1.257
715.844,1.247
716.105,1.238
716.367,1.231
716.628,1.232
716.889,1.234
717.150,1.231
717.411,1.224
717.673,1.224
717.934,1.229
718.195,1.234
718.457,1.228
718.718,1.219
718.979,1.216
719.240,1.221
719.502,1.230
719.763,1.240
720.024,1.247
720.286,1.249
720.547,1.242
720.808,1.235
721.069,1.232
721.331,1.239
721.592,1.248
721.853,1.253
722.115,1.252
722.376,1.249
722.638,1.245
722.899,1.244
723.160,1.240
723.422,1.235
723.683,1.230
723.944,1.231
724.206,1.235
724.467,1.237
724.729,1.240
724.990,1.247
725.252,1.254
725.513,1.248
725.775,1.233
726.036,1.219
726.298,1.217
726.559,1.223
726.821,1.228
727.082,1.232
727.344,1.231
727.605,1.230
727.867,1.225
728.128,1.224
728.390,1.222
728.652,1.228
728.913,1.238
729.175,1.245
729.436,1.249
729.698,1.249
729.960,1.247
730.221,1.241
730.483,1.229
730.745,1.226
731.007,1.227
731.268,1.229
731.530,1.231
731.792,1.234
732.054,1.237
732.315,1.240
732.577,1.241
732.839,1.235
733.101,1.226
733.363,1.221
733.625,1.224
733.887,1.232
734.149,1.234
734.411,1.234
734.673,1.234
734.935,1.236
735.197,1.236
735.459,1.242
735.721,1.248
735.983,1.247
736.245,1.233
736.507,1.227
736.769,1.232
737.031,1.241
737.293,1.236
737.555,1.225
737.818,1.213
738.080,1.209
738.342,1.207
738.604,1.209
738.867,1.213
739.129,1.216
739.391,1.219
739.654,1.221
739.916,1.222
740.178,1.226
740.441,1.233
740.703,1.235
740.966,1.229
741.228,1.223
741.491,1.221
741.753,1.223
742.016,1.224
742.278,1.224
742.541,1.226
742.804,1.231
743.066,1.237
743.329,1.238
743.592,1.234
743.854,1.235
744.117,1.240
744.380,1.243
744.643,1.237
744.905,1.231
745.168,1.230
745.431,1.230
745.694,1.226
745.957,1.221
746.220,1.218
746.483,1.219
746.746,1.223
747.009,1.236
