Wavelength (nm),Intensity B14,,C:/Users/Brend/Desktop/LED Spectras v2/Spectrometer Data (Blue Condensed).sp,,,B14,
379.792,1.783,,2018-06-26 15:21:10,,Integration Time,111 ms,
380.000,1.777,,Analyze Light,,Number of Scans to Average,25,
380.209,1.772,,,,Smoothing,1,
380.418,1.778
380.627,1.792
380.837,1.805
381.048,1.812
381.259,1.811
381.471,1.807
381.683,1.808
381.896,1.819
382.110,1.828
382.324,1.840
382.538,1.853
382.753,1.866
382.969,1.866
383.185,1.861
383.402,1.858
383.619,1.861
383.837,1.867
384.055,1.878
384.274,1.891
384.493,1.899
384.712,1.904
384.932,1.912
385.153,1.921
385.374,1.931
385.596,1.935
385.818,1.950
386.040,1.964
386.263,1.980
386.487,1.985
386.710,1.988
386.935,1.985
387.159,1.984
387.385,1.981
387.610,1.982
387.836,1.984
388.063,1.994
388.289,2.003
388.517,2.010
388.744,2.012
388.972,2.020
389.201,2.026
389.430,2.032
389.659,2.037
389.889,2.049
390.119,2.061
390.349,2.070
390.580,2.079
390.811,2.084
391.042,2.086
391.274,2.088
391.507,2.092
391.739,2.095
391.972,2.092
392.205,2.091
392.439,2.096
392.673,2.108
392.907,2.122
393.142,2.138
393.377,2.150
393.612,2.163
393.848,2.169
394.084,2.179
394.320,2.183
394.557,2.193
394.794,2.200
395.031,2.210
395.269,2.218
395.507,2.228
395.745,2.234
395.983,2.237
396.222,2.243
396.461,2.258
396.700,2.280
396.940,2.294
397.180,2.300
397.420,2.299
397.660,2.298
397.901,2.301
398.142,2.309
398.383,2.315
398.625,2.314
398.866,2.319
399.108,2.333
399.351,2.362
399.593,2.375
399.836,2.380
400.079,2.374
400.322,2.374
400.566,2.372
400.809,2.373
401.053,2.375
401.298,2.382
401.542,2.392
401.787,2.406
402.031,2.418
402.277,2.431
402.522,2.433
402.767,2.437
403.013,2.437
403.259,2.450
403.505,2.459
403.752,2.469
403.998,2.473
404.245,2.488
404.492,2.504
404.739,2.517
404.986,2.518
405.234,2.520
405.482,2.520
405.730,2.524
405.978,2.529
406.226,2.534
406.475,2.531
406.723,2.532
406.972,2.539
407.221,2.548
407.470,2.552
407.720,2.557
407.969,2.557
408.219,2.567
408.469,2.578
408.719,2.592
408.969,2.597
409.219,2.608
409.470,2.621
409.720,2.640
409.971,2.655
410.222,2.672
410.473,2.676
410.724,2.674
410.976,2.673
411.227,2.684
411.479,2.693
411.731,2.703
411.983,2.704
412.235,2.709
412.487,2.710
412.740,2.718
412.992,2.726
413.245,2.736
413.497,2.740
413.750,2.753
414.003,2.763
414.257,2.770
414.510,2.764
414.763,2.770
415.017,2.780
415.270,2.795
415.524,2.800
415.778,2.804
416.032,2.810
416.286,2.824
416.540,2.839
416.794,2.855
417.049,2.863
417.303,2.869
417.558,2.868
417.812,2.871
418.067,2.876
418.322,2.890
418.577,2.896
418.832,2.899
419.088,2.890
419.343,2.895
419.598,2.893
419.854,2.903
420.109,2.908
420.365,2.930
420.621,2.943
420.876,2.957
421.132,2.962
421.388,2.966
421.645,2.963
421.901,2.966
422.157,2.968
422.413,2.973
422.670,2.971
422.926,2.976
423.183,2.975
423.439,2.985
423.696,2.993
423.953,3.017
424.210,3.037
424.467,3.051
424.724,3.050
424.981,3.042
425.238,3.044
425.495,3.061
425.753,3.079
426.010,3.093
426.267,3.103
426.525,3.125
426.782,3.143
427.040,3.163
427.298,3.182
427.555,3.219
427.813,3.254
428.071,3.287
428.329,3.310
428.587,3.341
428.845,3.375
429.103,3.416
429.361,3.452
429.619,3.495
429.878,3.536
430.136,3.586
430.394,3.631
430.653,3.694
430.911,3.761
431.170,3.837
431.428,3.904
431.687,3.973
431.946,4.035
432.204,4.108
432.463,4.186
432.722,4.275
432.981,4.367
433.240,4.474
433.499,4.591
433.758,4.723
434.017,4.849
434.276,4.976
434.535,5.097
434.794,5.233
435.053,5.380
435.312,5.548
435.572,5.713
435.831,5.892
436.090,6.075
436.350,6.283
436.609,6.492
436.869,6.711
437.128,6.921
437.388,7.141
437.647,7.367
437.907,7.628
438.166,7.894
438.426,8.177
438.686,8.456
438.946,8.755
439.205,9.066
439.465,9.398
439.725,9.739
439.985,10.094
440.245,10.449
440.505,10.831
440.765,11.220
441.025,11.620
441.285,12.022
441.545,12.448
441.805,12.880
442.065,13.321
442.325,13.772
442.585,14.252
442.846,14.750
443.106,15.286
443.366,15.842
443.626,16.418
443.887,16.996
444.147,17.590
444.407,18.193
444.668,18.811
444.928,19.451
445.189,20.129
445.449,20.826
445.710,21.549
445.970,22.287
446.231,23.061
446.491,23.855
446.752,24.695
447.012,25.561
447.273,26.481
447.534,27.423
447.794,28.395
448.055,29.383
448.316,30.426
448.577,31.534
448.837,32.711
449.098,33.943
449.359,35.237
449.620,36.573
449.881,37.949
450.142,39.363
450.403,40.859
450.664,42.448
450.924,44.127
451.185,45.880
451.446,47.702
451.707,49.588
451.969,51.549
452.230,53.569
452.491,55.639
452.752,57.763
453.013,59.938
453.274,62.174
453.535,64.425
453.796,66.692
454.058,68.961
454.319,71.226
454.580,73.484
454.841,75.718
455.103,77.920
455.364,80.034
455.625,82.026
455.887,83.805
456.148,85.332
456.409,86.596
456.671,87.657
456.932,88.577
457.194,89.380
457.455,90.095
457.716,90.710
457.978,91.231
458.239,91.650
458.501,91.996
458.763,92.274
459.024,92.483
459.286,92.619
459.547,92.692
459.809,92.710
460.071,92.677
460.332,92.590
460.594,92.466
460.856,92.294
461.117,92.081
461.379,91.811
461.641,91.486
461.903,91.081
462.164,90.593
462.426,90.033
462.688,89.396
462.950,88.680
463.212,87.855
463.474,86.899
463.736,85.789
463.998,84.503
464.260,83.051
464.522,81.469
464.784,79.806
465.046,78.115
465.308,76.446
465.570,74.810
465.832,73.213
466.094,71.638
466.356,70.107
466.618,68.612
466.880,67.160
467.142,65.739
467.405,64.373
467.667,63.077
467.929,61.848
468.191,60.697
468.454,59.591
468.716,58.506
468.978,57.419
469.241,56.340
469.503,55.305
469.765,54.338
470.028,53.420
470.290,52.542
470.552,51.684
470.815,50.861
471.077,50.051
471.340,49.240
471.602,48.440
471.865,47.661
472.128,46.905
472.390,46.165
472.653,45.431
472.915,44.693
473.178,43.944
473.441,43.195
473.703,42.436
473.966,41.660
474.229,40.861
474.492,40.057
474.755,39.238
475.017,38.435
475.280,37.630
475.543,36.853
475.806,36.057
476.069,35.249
476.332,34.406
476.595,33.564
476.858,32.741
477.121,31.938
477.384,31.150
477.647,30.358
477.910,29.582
478.173,28.814
478.436,28.064
478.699,27.333
478.962,26.620
479.226,25.939
479.489,25.260
479.752,24.596
480.015,23.923
480.279,23.272
480.542,22.629
480.805,21.997
481.069,21.379
481.332,20.784
481.595,20.228
481.859,19.712
482.122,19.217
482.386,18.732
482.649,18.248
482.913,17.777
483.177,17.307
483.440,16.856
483.704,16.428
483.967,16.042
484.231,15.664
484.495,15.306
484.759,14.956
485.022,14.618
485.286,14.269
485.550,13.921
485.814,13.571
486.078,13.238
486.342,12.920
486.606,12.625
486.869,12.342
487.133,12.074
487.397,11.819
487.662,11.579
487.926,11.338
488.190,11.091
488.454,10.828
488.718,10.574
488.982,10.322
489.246,10.084
489.511,9.842
489.775,9.604
490.039,9.357
490.304,9.120
490.568,8.879
490.832,8.663
491.097,8.459
491.361,8.279
491.626,8.086
491.890,7.885
492.155,7.672
492.419,7.469
492.684,7.262
492.949,7.072
493.213,6.886
493.478,6.720
493.743,6.542
494.008,6.356
494.272,6.168
494.537,6.004
494.802,5.851
495.067,5.709
495.332,5.559
495.597,5.423
495.862,5.278
496.127,5.140
496.392,4.995
496.657,4.860
496.922,4.715
497.187,4.587
497.452,4.465
497.718,4.370
497.983,4.266
498.248,4.164
498.513,4.049
498.779,3.954
499.044,3.866
499.310,3.779
499.575,3.678
499.841,3.589
500.106,3.504
500.372,3.428
500.637,3.349
500.903,3.287
501.168,3.223
501.434,3.154
501.700,3.069
501.966,2.998
502.231,2.931
502.497,2.877
502.763,2.817
503.029,2.762
503.295,2.706
503.561,2.656
503.827,2.613
504.093,2.575
504.359,2.536
504.625,2.499
504.891,2.457
505.157,2.421
505.423,2.378
505.690,2.336
505.956,2.296
506.222,2.269
506.489,2.254
506.755,2.248
507.021,2.237
507.288,2.217
507.554,2.183
507.821,2.153
508.087,2.125
508.354,2.110
508.621,2.092
508.887,2.072
509.154,2.044
509.421,2.022
509.687,1.995
509.954,1.970
510.221,1.946
510.488,1.936
510.755,1.926
511.022,1.915
511.289,1.893
511.556,1.873
511.823,1.854
512.090,1.850
512.357,1.843
512.624,1.834
512.891,1.816
513.159,1.798
513.426,1.779
513.693,1.764
513.960,1.754
514.228,1.747
514.495,1.742
514.763,1.735
515.030,1.722
515.298,1.705
515.565,1.695
515.833,1.690
516.100,1.685
516.368,1.674
516.636,1.663
516.904,1.656
517.171,1.647
517.439,1.641
517.707,1.635
517.975,1.632
518.243,1.627
518.511,1.621
518.779,1.612
519.047,1.609
519.315,1.606
519.583,1.602
519.851,1.590
520.119,1.580
520.387,1.574
520.656,1.574
520.924,1.572
521.192,1.573
521.461,1.572
521.729,1.572
521.997,1.568
522.266,1.564
522.534,1.561
522.803,1.559
523.071,1.551
523.340,1.533
523.609,1.512
523.877,1.502
524.146,1.500
524.415,1.501
524.684,1.496
524.952,1.487
525.221,1.482
525.490,1.489
525.759,1.499
526.028,1.499
526.297,1.483
526.566,1.470
526.835,1.467
527.104,1.470
527.373,1.474
527.642,1.474
527.912,1.468
528.181,1.461
528.450,1.456
528.719,1.458
528.989,1.466
529.258,1.472
529.528,1.470
529.797,1.461
530.067,1.454
530.336,1.451
530.606,1.447
530.875,1.437
531.145,1.432
531.414,1.437
531.684,1.449
531.954,1.452
532.224,1.446
532.493,1.432
532.763,1.425
533.033,1.425
533.303,1.433
533.573,1.438
533.843,1.431
534.113,1.423
534.383,1.416
534.653,1.419
534.923,1.420
535.193,1.424
535.463,1.428
535.733,1.432
536.004,1.432
536.274,1.430
536.544,1.425
536.814,1.418
537.085,1.411
537.355,1.411
537.626,1.418
537.896,1.426
538.166,1.428
538.437,1.427
538.707,1.423
538.978,1.422
539.249,1.427
539.519,1.430
539.790,1.426
540.061,1.422
540.331,1.425
540.602,1.436
540.873,1.442
541.144,1.442
541.414,1.439
541.685,1.438
541.956,1.437
542.227,1.434
542.498,1.429
542.769,1.426
543.040,1.427
543.311,1.432
543.582,1.437
543.853,1.438
544.124,1.440
544.396,1.442
544.667,1.444
544.938,1.438
545.209,1.423
545.480,1.413
545.752,1.411
546.023,1.420
546.294,1.418
546.566,1.408
546.837,1.394
547.109,1.388
547.380,1.386
547.652,1.383
547.923,1.382
548.195,1.390
548.466,1.404
548.738,1.417
549.009,1.414
549.281,1.408
549.553,1.397
549.824,1.386
550.096,1.377
550.368,1.374
550.640,1.377
550.911,1.381
551.183,1.390
551.455,1.404
551.727,1.412
551.999,1.410
552.271,1.397
552.543,1.387
552.815,1.382
553.087,1.388
553.359,1.391
553.631,1.391
553.903,1.386
554.175,1.386
554.447,1.392
554.719,1.396
554.991,1.398
555.263,1.397
555.535,1.394
555.808,1.390
556.080,1.387
556.352,1.386
556.624,1.384
556.897,1.379
557.169,1.378
557.441,1.375
557.714,1.373
557.986,1.372
558.258,1.372
558.531,1.377
558.803,1.379
559.076,1.380
559.348,1.373
559.621,1.365
559.893,1.364
560.166,1.365
560.438,1.365
560.711,1.362
560.983,1.361
561.256,1.366
561.528,1.371
561.801,1.377
562.074,1.381
562.346,1.387
562.619,1.392
562.892,1.394
563.164,1.389
563.437,1.386
563.710,1.381
563.983,1.371
564.255,1.364
564.528,1.369
564.801,1.384
565.074,1.390
565.346,1.384
565.619,1.376
565.892,1.376
566.165,1.376
566.438,1.371
566.711,1.365
566.984,1.361
567.257,1.359
567.529,1.358
567.802,1.362
568.075,1.369
568.348,1.372
568.621,1.369
568.894,1.365
569.167,1.363
569.440,1.358
569.713,1.349
569.986,1.343
570.259,1.341
570.532,1.351
570.805,1.358
571.078,1.361
571.351,1.360
571.625,1.363
571.898,1.362
572.171,1.356
572.444,1.348
572.717,1.349
572.990,1.354
573.263,1.352
573.536,1.343
573.809,1.333
574.083,1.330
574.356,1.337
574.629,1.350
574.902,1.360
575.175,1.364
575.448,1.355
575.721,1.350
575.995,1.346
576.268,1.346
576.541,1.349
576.814,1.353
577.087,1.358
577.361,1.360
577.634,1.360
577.907,1.355
578.180,1.347
578.453,1.342
578.727,1.345
579.000,1.349
579.273,1.352
579.546,1.357
579.820,1.366
580.093,1.367
580.366,1.359
580.639,1.347
580.913,1.344
581.186,1.344
581.459,1.344
581.732,1.338
582.005,1.337
582.279,1.337
582.552,1.340
582.825,1.341
583.098,1.344
583.372,1.348
583.645,1.351
583.918,1.354
584.191,1.354
584.464,1.354
584.738,1.350
585.011,1.349
585.284,1.350
585.557,1.351
585.831,1.353
586.104,1.361
586.377,1.371
586.650,1.377
586.923,1.377
587.196,1.372
587.470,1.363
587.743,1.353
588.016,1.346
588.289,1.347
588.562,1.352
588.835,1.353
589.109,1.348
589.382,1.342
589.655,1.336
589.928,1.330
590.201,1.327
590.474,1.335
590.747,1.343
591.020,1.352
591.293,1.357
591.567,1.359
591.840,1.356
592.113,1.349
592.386,1.339
592.659,1.331
592.932,1.331
593.205,1.336
593.478,1.336
593.751,1.329
594.024,1.323
594.297,1.318
594.570,1.318
594.843,1.323
595.116,1.330
595.389,1.334
595.662,1.336
595.934,1.341
596.207,1.350
596.480,1.358
596.753,1.365
597.026,1.361
597.299,1.355
597.572,1.347
597.844,1.340
598.117,1.332
598.390,1.326
598.663,1.328
598.936,1.337
599.208,1.342
599.481,1.346
599.754,1.346
600.026,1.338
600.299,1.328
600.572,1.319
600.844,1.316
601.117,1.311
601.390,1.310
601.662,1.311
601.935,1.314
602.207,1.318
602.480,1.325
602.752,1.328
603.025,1.325
603.297,1.319
603.570,1.321
603.842,1.331
604.115,1.340
604.387,1.345
604.660,1.341
604.932,1.338
605.204,1.335
605.477,1.338
605.749,1.347
606.021,1.355
606.294,1.357
606.566,1.351
606.838,1.348
607.110,1.351
607.383,1.358
607.655,1.366
607.927,1.376
608.199,1.388
608.471,1.390
608.743,1.383
609.015,1.376
609.287,1.373
609.559,1.373
609.831,1.370
610.103,1.365
610.375,1.359
610.647,1.352
610.919,1.347
611.191,1.344
611.463,1.345
611.735,1.344
612.007,1.340
612.278,1.334
612.550,1.331
612.822,1.336
613.094,1.341
613.365,1.342
613.637,1.344
613.909,1.344
614.180,1.347
614.452,1.346
614.723,1.341
614.995,1.335
615.266,1.332
615.538,1.340
615.809,1.349
616.081,1.349
616.352,1.340
616.623,1.332
616.895,1.330
617.166,1.327
617.437,1.325
617.709,1.323
617.980,1.325
618.251,1.329
618.522,1.335
618.793,1.347
619.065,1.361
619.336,1.360
619.607,1.351
619.878,1.342
620.149,1.347
620.420,1.351
620.691,1.347
620.962,1.345
621.232,1.349
621.503,1.348
621.774,1.344
622.045,1.339
622.316,1.345
622.586,1.353
622.857,1.360
623.128,1.359
623.398,1.354
623.669,1.346
623.940,1.337
624.210,1.330
624.481,1.332
624.751,1.336
625.021,1.336
625.292,1.331
625.562,1.330
625.833,1.330
626.103,1.330
626.373,1.324
626.643,1.321
626.914,1.323
627.184,1.330
627.454,1.330
627.724,1.328
627.994,1.327
628.264,1.331
628.534,1.328
628.804,1.324
629.074,1.322
629.344,1.326
629.614,1.328
629.884,1.328
630.154,1.324
630.424,1.318
630.693,1.308
630.963,1.298
631.233,1.290
631.502,1.294
631.772,1.307
632.041,1.323
632.311,1.330
632.581,1.331
632.850,1.327
633.119,1.317
633.389,1.307
633.658,1.301
633.928,1.309
634.197,1.318
634.466,1.330
634.735,1.335
635.004,1.334
635.274,1.327
635.543,1.317
635.812,1.315
636.081,1.316
636.350,1.318
636.619,1.318
636.888,1.320
637.157,1.321
637.426,1.325
637.694,1.322
637.963,1.318
638.232,1.312
638.501,1.309
638.769,1.312
639.038,1.318
639.307,1.327
639.575,1.330
639.844,1.325
640.112,1.317
640.381,1.313
640.649,1.316
640.917,1.321
641.186,1.326
641.454,1.328
641.722,1.327
641.991,1.324
642.259,1.314
642.527,1.308
642.795,1.304
643.063,1.303
643.331,1.303
643.599,1.307
643.867,1.313
644.135,1.317
644.403,1.323
644.671,1.323
644.939,1.325
645.206,1.326
645.474,1.330
645.742,1.329
646.009,1.320
646.277,1.309
646.545,1.310
646.812,1.322
647.080,1.333
647.347,1.338
647.615,1.332
647.882,1.319
648.149,1.305
648.417,1.297
648.684,1.303
648.951,1.314
649.219,1.323
649.486,1.325
649.753,1.321
650.020,1.313
650.287,1.306
650.554,1.301
650.821,1.300
651.088,1.302
651.355,1.311
651.622,1.317
651.889,1.320
652.155,1.315
652.422,1.310
652.689,1.307
652.956,1.305
653.222,1.313
653.489,1.331
653.755,1.342
654.022,1.338
654.288,1.324
654.555,1.319
654.821,1.323
655.088,1.328
655.354,1.328
655.620,1.328
655.887,1.329
656.153,1.330
656.419,1.329
656.685,1.328
656.951,1.328
657.217,1.325
657.483,1.320
657.749,1.314
658.015,1.312
658.281,1.315
658.547,1.312
658.813,1.307
659.079,1.302
659.345,1.299
659.610,1.298
659.876,1.298
660.142,1.300
660.407,1.304
660.673,1.309
660.939,1.314
661.204,1.315
661.470,1.312
661.735,1.313
662.000,1.316
662.266,1.314
662.531,1.309
662.796,1.303
663.062,1.297
663.327,1.291
663.592,1.291
663.857,1.295
664.122,1.299
664.388,1.301
664.653,1.305
664.918,1.312
665.183,1.315
665.448,1.319
665.712,1.322
665.977,1.327
666.242,1.326
666.507,1.313
666.772,1.300
667.037,1.291
667.301,1.292
667.566,1.296
667.831,1.299
668.095,1.303
668.360,1.304
668.624,1.304
668.889,1.307
669.153,1.307
669.418,1.306
669.682,1.303
669.946,1.305
670.211,1.311
670.475,1.314
670.739,1.320
671.004,1.329
671.268,1.353
671.532,1.374
671.796,1.369
672.060,1.350
672.324,1.335
672.588,1.341
672.852,1.353
673.116,1.381
673.380,1.404
673.644,1.389
673.908,1.352
674.172,1.317
674.436,1.314
674.700,1.316
674.963,1.320
675.227,1.322
675.491,1.317
675.754,1.312
676.018,1.309
676.282,1.312
676.545,1.311
676.809,1.310
677.072,1.309
677.336,1.309
677.599,1.309
677.863,1.303
678.126,1.304
678.389,1.312
678.653,1.323
678.916,1.322
679.179,1.313
679.442,1.309
679.706,1.312
679.969,1.317
680.232,1.320
680.495,1.323
680.758,1.324
681.021,1.319
681.284,1.312
681.547,1.309
681.810,1.315
682.073,1.324
682.336,1.330
682.599,1.329
682.862,1.326
683.125,1.324
683.388,1.325
683.651,1.326
683.913,1.325
684.176,1.319
684.439,1.309
684.702,1.299
684.964,1.296
685.227,1.298
685.490,1.305
685.752,1.311
686.015,1.313
686.277,1.309
686.540,1.302
686.802,1.297
687.065,1.297
687.327,1.298
687.590,1.298
687.852,1.294
688.115,1.286
688.377,1.284
688.639,1.288
688.902,1.296
689.164,1.302
689.426,1.309
689.689,1.315
689.951,1.315
690.213,1.311
690.475,1.308
690.737,1.306
691.000,1.302
691.262,1.299
691.524,1.301
691.786,1.310
692.048,1.319
692.310,1.318
692.572,1.307
692.834,1.297
693.096,1.296
693.358,1.305
693.620,1.316
693.882,1.322
694.144,1.323
694.406,1.319
694.668,1.314
694.930,1.304
695.192,1.299
695.453,1.301
695.715,1.306
695.977,1.304
696.239,1.298
696.501,1.296
696.762,1.300
697.024,1.302
697.286,1.298
697.548,1.295
697.809,1.296
698.071,1.298
698.333,1.298
698.594,1.296
698.856,1.298
699.118,1.302
699.379,1.307
699.641,1.313
699.902,1.315
700.164,1.314
700.426,1.310
700.687,1.308
700.949,1.308
701.210,1.307
701.472,1.304
701.733,1.299
701.995,1.295
702.256,1.293
702.518,1.294
702.779,1.295
703.041,1.303
703.302,1.312
703.563,1.313
703.825,1.306
704.086,1.301
704.348,1.300
704.609,1.303
704.871,1.308
705.132,1.316
705.393,1.315
705.655,1.311
705.916,1.309
706.177,1.310
706.439,1.312
706.700,1.310
706.961,1.310
707.223,1.307
707.484,1.295
707.745,1.280
708.007,1.268
708.268,1.258
708.529,1.247
708.790,1.233
709.052,1.226
709.313,1.224
709.574,1.229
709.835,1.231
710.097,1.225
710.358,1.211
710.619,1.198
710.881,1.191
711.142,1.186
711.403,1.182
711.664,1.179
711.926,1.176
712.187,1.182
712.448,1.188
712.709,1.199
712.970,1.207
713.232,1.214
713.493,1.220
713.754,1.225
714.015,1.228
714.277,1.229
714.538,1.231
714.799,1.237
715.060,1.241
715.322,1.240
715.583,1.232
715.844,1.223
716.105,1.213
716.367,1.206
716.628,1.205
716.889,1.203
717.150,1.198
717.411,1.188
717.673,1.189
717.934,1.196
718.195,1.205
718.457,1.202
718.718,1.192
718.979,1.184
719.240,1.186
719.502,1.195
719.763,1.206
720.024,1.211
720.286,1.211
720.547,1.201
720.808,1.191
721.069,1.186
721.331,1.194
721.592,1.204
721.853,1.213
722.115,1.215
722.376,1.215
722.638,1.212
722.899,1.209
723.160,1.202
723.422,1.195
723.683,1.191
723.944,1.193
724.206,1.195
724.467,1.193
724.729,1.193
724.990,1.200
725.252,1.206
725.513,1.201
725.775,1.187
726.036,1.175
726.298,1.177
726.559,1.188
726.821,1.196
727.082,1.197
727.344,1.193
727.605,1.190
727.867,1.188
728.128,1.188
728.390,1.186
728.652,1.190
728.913,1.199
729.175,1.207
729.436,1.214
729.698,1.218
729.960,1.218
730.221,1.211
730.483,1.196
730.745,1.189
731.007,1.187
731.268,1.191
731.530,1.193
731.792,1.193
732.054,1.193
732.315,1.193
732.577,1.195
732.839,1.191
733.101,1.186
733.363,1.181
733.625,1.182
733.887,1.186
734.149,1.188
734.411,1.193
734.673,1.197
734.935,1.200
735.197,1.200
735.459,1.203
735.721,1.206
735.983,1.203
736.245,1.191
736.507,1.188
736.769,1.195
737.031,1.201
737.293,1.197
737.555,1.188
737.818,1.181
738.080,1.177
738.342,1.176
738.604,1.176
738.867,1.176
739.129,1.173
739.391,1.172
739.654,1.172
739.916,1.176
740.178,1.181
740.441,1.190
740.703,1.194
740.966,1.190
741.228,1.183
741.491,1.182
741.753,1.186
742.016,1.186
742.278,1.185
742.541,1.186
742.804,1.190
743.066,1.200
743.329,1.201
743.592,1.200
743.854,1.200
744.117,1.206
744.380,1.212
744.643,1.205
744.905,1.196
745.168,1.191
745.431,1.190
745.694,1.186
745.957,1.183
746.220,1.178
746.483,1.176
746.746,1.175
747.009,1.184
