Wavelength (nm),Intensity B20,,C:/Users/Brend/Desktop/LED Spectras v2/Spectrometer Data (Blue Condensed).sp,,,B20,
379.792,1.827,,2018-06-26 15:21:46,,Integration Time,117 ms,
380.000,1.827,,Analyze Light,,Number of Scans to Average,25,
380.209,1.828,,,,Smoothing,1,
380.418,1.839
380.627,1.857
380.837,1.874
381.048,1.883
381.259,1.886
381.471,1.889
381.683,1.894
381.896,1.902
382.110,1.907
382.324,1.919
382.538,1.936
382.753,1.947
382.969,1.939
383.185,1.930
383.402,1.924
383.619,1.933
383.837,1.945
384.055,1.961
384.274,1.977
384.493,1.991
384.712,1.999
384.932,2.006
385.153,2.013
385.374,2.020
385.596,2.028
385.818,2.041
386.040,2.057
386.263,2.073
386.487,2.080
386.710,2.082
386.935,2.074
387.159,2.070
387.385,2.063
387.610,2.062
387.836,2.065
388.063,2.073
388.289,2.084
388.517,2.093
388.744,2.101
388.972,2.115
389.201,2.123
389.430,2.133
389.659,2.137
389.889,2.148
390.119,2.158
390.349,2.171
390.580,2.183
390.811,2.190
391.042,2.192
391.274,2.196
391.507,2.197
391.739,2.195
391.972,2.189
392.205,2.191
392.439,2.200
392.673,2.217
392.907,2.231
393.142,2.245
393.377,2.253
393.612,2.267
393.848,2.275
394.084,2.281
394.320,2.283
394.557,2.289
394.794,2.295
395.031,2.306
395.269,2.318
395.507,2.333
395.745,2.339
395.983,2.346
396.222,2.353
396.461,2.371
396.700,2.388
396.940,2.403
397.180,2.410
397.420,2.411
397.660,2.413
397.901,2.416
398.142,2.420
398.383,2.419
398.625,2.416
398.866,2.427
399.108,2.446
399.351,2.473
399.593,2.479
399.836,2.482
400.079,2.476
400.322,2.480
400.566,2.477
400.809,2.478
401.053,2.478
401.298,2.483
401.542,2.491
401.787,2.504
402.031,2.516
402.277,2.528
402.522,2.534
402.767,2.542
403.013,2.542
403.259,2.547
403.505,2.551
403.752,2.561
403.998,2.564
404.245,2.578
404.492,2.593
404.739,2.607
404.986,2.615
405.234,2.623
405.482,2.629
405.730,2.631
405.978,2.632
406.226,2.631
406.475,2.625
406.723,2.626
406.972,2.637
407.221,2.657
407.470,2.672
407.720,2.683
407.969,2.683
408.219,2.692
408.469,2.699
408.719,2.713
408.969,2.719
409.219,2.731
409.470,2.739
409.720,2.751
409.971,2.760
410.222,2.778
410.473,2.787
410.724,2.792
410.976,2.795
411.227,2.807
411.479,2.817
411.731,2.827
411.983,2.829
412.235,2.833
412.487,2.830
412.740,2.838
412.992,2.844
413.245,2.858
413.497,2.860
413.750,2.867
414.003,2.866
414.257,2.864
414.510,2.861
414.763,2.867
415.017,2.873
415.270,2.885
415.524,2.887
415.778,2.890
416.032,2.890
416.286,2.905
416.540,2.919
416.794,2.935
417.049,2.939
417.303,2.944
417.558,2.946
417.812,2.946
418.067,2.943
418.322,2.943
418.577,2.941
418.832,2.940
419.088,2.932
419.343,2.936
419.598,2.931
419.854,2.938
420.109,2.941
420.365,2.958
420.621,2.963
420.876,2.969
421.132,2.967
421.388,2.966
421.645,2.961
421.901,2.965
422.157,2.969
422.413,2.983
422.670,2.990
422.926,3.002
423.183,3.002
423.439,3.014
423.696,3.023
423.953,3.055
424.210,3.077
424.467,3.091
424.724,3.087
424.981,3.090
425.238,3.102
425.495,3.133
425.753,3.159
426.010,3.189
426.267,3.207
426.525,3.239
426.782,3.270
427.040,3.307
427.298,3.346
427.555,3.399
427.813,3.447
428.071,3.491
428.329,3.527
428.587,3.573
428.845,3.623
429.103,3.685
429.361,3.750
429.619,3.822
429.878,3.891
430.136,3.976
430.394,4.061
430.653,4.168
430.911,4.276
431.170,4.395
431.428,4.495
431.687,4.607
431.946,4.718
432.204,4.850
432.463,4.980
432.722,5.119
432.981,5.259
433.240,5.417
433.499,5.585
433.758,5.768
434.017,5.942
434.276,6.131
434.535,6.322
434.794,6.533
435.053,6.742
435.312,6.967
435.572,7.192
435.831,7.431
436.090,7.688
436.350,7.967
436.609,8.255
436.869,8.549
437.128,8.845
437.388,9.162
437.647,9.485
437.907,9.831
438.166,10.169
438.426,10.526
438.686,10.891
438.946,11.286
439.205,11.696
439.465,12.147
439.725,12.610
439.985,13.092
440.245,13.571
440.505,14.082
440.765,14.603
441.025,15.144
441.285,15.686
441.545,16.254
441.805,16.847
442.065,17.470
442.325,18.122
442.585,18.807
442.846,19.527
443.106,20.293
443.366,21.085
443.626,21.912
443.887,22.778
444.147,23.681
444.407,24.631
444.668,25.619
444.928,26.647
445.189,27.726
445.449,28.858
445.710,30.049
445.970,31.281
446.231,32.576
446.491,33.937
446.752,35.364
447.012,36.837
447.273,38.375
447.534,39.973
447.794,41.626
448.055,43.330
448.316,45.119
448.577,46.999
448.837,48.956
449.098,50.976
449.359,53.036
449.620,55.113
449.881,57.199
450.142,59.329
450.403,61.511
450.664,63.745
450.924,65.999
451.185,68.293
451.446,70.596
451.707,72.894
451.969,75.160
452.230,77.386
452.491,79.558
452.752,81.607
453.013,83.449
453.274,85.016
453.535,86.308
453.796,87.375
454.058,88.294
454.319,89.106
454.580,89.815
454.841,90.424
455.103,90.933
455.364,91.356
455.625,91.695
455.887,91.972
456.148,92.189
456.409,92.347
456.671,92.442
456.932,92.483
457.194,92.477
457.455,92.427
457.716,92.329
457.978,92.177
458.239,91.979
458.501,91.738
458.763,91.450
459.024,91.102
459.286,90.671
459.547,90.168
459.809,89.571
460.071,88.891
460.332,88.110
460.594,87.238
460.856,86.239
461.117,85.062
461.379,83.675
461.641,82.106
461.903,80.407
462.164,78.639
462.426,76.837
462.688,75.019
462.950,73.204
463.212,71.407
463.474,69.651
463.736,67.935
463.998,66.290
464.260,64.732
464.522,63.265
464.784,61.861
465.046,60.517
465.308,59.256
465.570,58.043
465.832,56.884
466.094,55.771
466.356,54.718
466.618,53.701
466.880,52.697
467.142,51.721
467.405,50.784
467.667,49.912
467.929,49.081
468.191,48.291
468.454,47.492
468.716,46.706
468.978,45.896
469.241,45.088
469.503,44.281
469.765,43.515
470.028,42.751
470.290,42.002
470.552,41.258
470.815,40.550
471.077,39.832
471.340,39.108
471.602,38.379
471.865,37.656
472.128,36.923
472.390,36.165
472.653,35.412
472.915,34.660
473.178,33.928
473.441,33.189
473.703,32.446
473.966,31.669
474.229,30.895
474.492,30.117
474.755,29.356
475.017,28.593
475.280,27.857
475.543,27.142
475.806,26.438
476.069,25.727
476.332,25.013
476.595,24.312
476.858,23.624
477.121,22.956
477.384,22.294
477.647,21.666
477.910,21.062
478.173,20.486
478.436,19.921
478.699,19.378
478.962,18.858
479.226,18.368
479.489,17.881
479.752,17.400
480.015,16.922
480.279,16.473
480.542,16.039
480.805,15.615
481.069,15.196
481.332,14.806
481.595,14.439
481.859,14.103
482.122,13.770
482.386,13.445
482.649,13.122
482.913,12.808
483.177,12.494
483.440,12.189
483.704,11.904
483.967,11.649
484.231,11.400
484.495,11.151
484.759,10.894
485.022,10.638
485.286,10.392
485.550,10.153
485.814,9.903
486.078,9.662
486.342,9.420
486.606,9.208
486.869,8.995
487.133,8.801
487.397,8.607
487.662,8.419
487.926,8.218
488.190,8.022
488.454,7.811
488.718,7.614
488.982,7.410
489.246,7.229
489.511,7.040
489.775,6.860
490.039,6.676
490.304,6.497
490.568,6.309
490.832,6.136
491.097,5.970
491.361,5.819
491.626,5.664
491.890,5.519
492.155,5.371
492.419,5.231
492.684,5.082
492.949,4.941
493.213,4.799
493.478,4.670
493.743,4.538
494.008,4.405
494.272,4.270
494.537,4.152
494.802,4.050
495.067,3.967
495.332,3.886
495.597,3.806
495.862,3.711
496.127,3.620
496.392,3.529
496.657,3.444
496.922,3.356
497.187,3.281
497.452,3.211
497.718,3.155
497.983,3.087
498.248,3.024
498.513,2.955
498.779,2.909
499.044,2.863
499.310,2.812
499.575,2.744
499.841,2.684
500.106,2.635
500.372,2.591
500.637,2.549
500.903,2.520
501.168,2.492
501.434,2.460
501.700,2.414
501.966,2.377
502.231,2.336
502.497,2.302
502.763,2.263
503.029,2.233
503.295,2.205
503.561,2.183
503.827,2.164
504.093,2.144
504.359,2.121
504.625,2.099
504.891,2.076
505.157,2.059
505.423,2.033
505.690,2.004
505.956,1.976
506.222,1.957
506.489,1.951
506.755,1.949
507.021,1.945
507.288,1.937
507.554,1.919
507.821,1.902
508.087,1.883
508.354,1.874
508.621,1.862
508.887,1.847
509.154,1.829
509.421,1.815
509.687,1.797
509.954,1.776
510.221,1.759
510.488,1.755
510.755,1.757
511.022,1.759
511.289,1.748
511.556,1.735
511.823,1.721
512.090,1.718
512.357,1.709
512.624,1.701
512.891,1.690
513.159,1.682
513.426,1.670
513.693,1.659
513.960,1.651
514.228,1.648
514.495,1.647
514.763,1.644
515.030,1.635
515.298,1.622
515.565,1.614
515.833,1.609
516.100,1.604
516.368,1.600
516.636,1.596
516.904,1.597
517.171,1.591
517.439,1.585
517.707,1.573
517.975,1.568
518.243,1.569
518.511,1.570
518.779,1.556
519.047,1.545
519.315,1.535
519.583,1.530
519.851,1.518
520.119,1.512
520.387,1.510
520.656,1.509
520.924,1.508
521.192,1.507
521.461,1.512
521.729,1.517
521.997,1.519
522.266,1.517
522.534,1.511
522.803,1.509
523.071,1.503
523.340,1.491
523.609,1.477
523.877,1.470
524.146,1.470
524.415,1.473
524.684,1.478
524.952,1.478
525.221,1.478
525.490,1.478
525.759,1.478
526.028,1.473
526.297,1.462
526.566,1.453
526.835,1.450
527.104,1.455
527.373,1.463
527.642,1.464
527.912,1.456
528.181,1.446
528.450,1.440
528.719,1.442
528.989,1.453
529.258,1.464
529.528,1.465
529.797,1.454
530.067,1.447
530.336,1.441
530.606,1.436
530.875,1.426
531.145,1.423
531.414,1.427
531.684,1.437
531.954,1.444
532.224,1.441
532.493,1.429
532.763,1.418
533.033,1.414
533.303,1.417
533.573,1.419
533.843,1.413
534.113,1.410
534.383,1.406
534.653,1.411
534.923,1.416
535.193,1.424
535.463,1.432
535.733,1.439
536.004,1.444
536.274,1.444
536.544,1.437
536.814,1.426
537.085,1.417
537.355,1.420
537.626,1.432
537.896,1.440
538.166,1.440
538.437,1.433
538.707,1.427
538.978,1.429
539.249,1.436
539.519,1.438
539.790,1.430
540.061,1.425
540.331,1.428
540.602,1.438
540.873,1.443
541.144,1.443
541.414,1.439
541.685,1.436
541.956,1.433
542.227,1.431
542.498,1.426
542.769,1.425
543.040,1.430
543.311,1.441
543.582,1.448
543.853,1.449
544.124,1.447
544.396,1.450
544.667,1.453
544.938,1.451
545.209,1.430
545.480,1.416
545.752,1.409
546.023,1.414
546.294,1.413
546.566,1.408
546.837,1.403
547.109,1.401
547.380,1.398
547.652,1.393
547.923,1.391
548.195,1.396
548.466,1.411
548.738,1.425
549.009,1.426
549.281,1.417
549.553,1.404
549.824,1.390
550.096,1.381
550.368,1.376
550.640,1.378
550.911,1.384
551.183,1.400
551.455,1.420
551.727,1.430
551.999,1.422
552.271,1.406
552.543,1.396
552.815,1.393
553.087,1.397
553.359,1.402
553.631,1.409
553.903,1.410
554.175,1.411
554.447,1.411
554.719,1.409
554.991,1.404
555.263,1.400
555.535,1.395
555.808,1.387
556.080,1.378
556.352,1.374
556.624,1.373
556.897,1.372
557.169,1.371
557.441,1.370
557.714,1.369
557.986,1.370
558.258,1.369
558.531,1.376
558.803,1.381
559.076,1.385
559.348,1.382
559.621,1.377
559.893,1.374
560.166,1.371
560.438,1.368
560.711,1.365
560.983,1.365
561.256,1.367
561.528,1.374
561.801,1.383
562.074,1.393
562.346,1.403
562.619,1.410
562.892,1.408
563.164,1.399
563.437,1.394
563.710,1.393
563.983,1.388
564.255,1.379
564.528,1.380
564.801,1.390
565.074,1.399
565.346,1.395
565.619,1.385
565.892,1.382
566.165,1.381
566.438,1.377
566.711,1.372
566.984,1.368
567.257,1.369
567.529,1.371
567.802,1.381
568.075,1.392
568.348,1.393
568.621,1.388
568.894,1.383
569.167,1.381
569.440,1.377
569.713,1.365
569.986,1.358
570.259,1.352
570.532,1.358
570.805,1.365
571.078,1.371
571.351,1.372
571.625,1.373
571.898,1.370
572.171,1.363
572.444,1.359
572.717,1.364
572.990,1.373
573.263,1.369
573.536,1.358
573.809,1.346
574.083,1.344
574.356,1.350
574.629,1.366
574.902,1.375
575.175,1.376
575.448,1.365
575.721,1.356
575.995,1.354
576.268,1.357
576.541,1.364
576.814,1.369
577.087,1.373
577.361,1.374
577.634,1.375
577.907,1.367
578.180,1.354
578.453,1.344
578.727,1.342
579.000,1.347
579.273,1.355
579.546,1.368
579.820,1.382
580.093,1.388
580.366,1.385
580.639,1.377
580.913,1.372
581.186,1.367
581.459,1.362
581.732,1.351
582.005,1.346
582.279,1.344
582.552,1.348
582.825,1.347
583.098,1.346
583.372,1.346
583.645,1.350
583.918,1.355
584.191,1.359
584.464,1.358
584.738,1.358
585.011,1.359
585.284,1.358
585.557,1.355
585.831,1.356
586.104,1.369
586.377,1.386
586.650,1.398
586.923,1.398
587.196,1.392
587.470,1.379
587.743,1.369
588.016,1.364
588.289,1.370
588.562,1.379
588.835,1.379
589.109,1.370
589.382,1.356
589.655,1.350
589.928,1.345
590.201,1.346
590.474,1.351
590.747,1.358
591.020,1.365
591.293,1.370
591.567,1.372
591.840,1.370
592.113,1.364
592.386,1.353
592.659,1.344
592.932,1.340
593.205,1.345
593.478,1.349
593.751,1.348
594.024,1.347
594.297,1.344
594.570,1.346
594.843,1.351
595.116,1.357
595.389,1.358
595.662,1.353
595.934,1.351
596.207,1.354
596.480,1.362
596.753,1.369
597.026,1.369
597.299,1.368
597.572,1.369
597.844,1.368
598.117,1.359
598.390,1.347
598.663,1.339
598.936,1.341
599.208,1.346
599.481,1.353
599.754,1.358
600.026,1.356
600.299,1.349
600.572,1.340
600.844,1.335
601.117,1.330
601.390,1.329
601.662,1.328
601.935,1.326
602.207,1.322
602.480,1.322
602.752,1.326
603.025,1.325
603.297,1.327
603.570,1.336
603.842,1.350
604.115,1.358
604.387,1.362
604.660,1.356
604.932,1.350
605.204,1.347
605.477,1.351
605.749,1.361
606.021,1.371
606.294,1.374
606.566,1.366
606.838,1.360
607.110,1.361
607.383,1.366
607.655,1.369
607.927,1.373
608.199,1.381
608.471,1.388
608.743,1.384
609.015,1.378
609.287,1.371
609.559,1.370
609.831,1.370
610.103,1.369
610.375,1.365
610.647,1.357
610.919,1.350
611.191,1.351
611.463,1.353
611.735,1.354
612.007,1.347
612.278,1.342
612.550,1.341
612.822,1.348
613.094,1.355
613.365,1.361
613.637,1.365
613.909,1.363
614.180,1.360
614.452,1.351
614.723,1.342
614.995,1.337
615.266,1.338
615.538,1.349
615.809,1.358
616.081,1.358
616.352,1.351
616.623,1.348
616.895,1.346
617.166,1.343
617.437,1.338
617.709,1.338
617.980,1.341
618.251,1.347
618.522,1.355
618.793,1.369
619.065,1.382
619.336,1.379
619.607,1.365
619.878,1.355
620.149,1.360
620.420,1.366
620.691,1.364
620.962,1.365
621.232,1.370
621.503,1.367
621.774,1.359
622.045,1.350
622.316,1.353
622.586,1.362
622.857,1.372
623.128,1.372
623.398,1.367
623.669,1.356
623.940,1.348
624.210,1.340
624.481,1.338
624.751,1.338
625.021,1.341
625.292,1.340
625.562,1.341
625.833,1.337
626.103,1.334
626.373,1.331
626.643,1.336
626.914,1.342
627.184,1.350
627.454,1.352
627.724,1.351
627.994,1.347
628.264,1.343
628.534,1.337
628.804,1.334
629.074,1.335
629.344,1.340
629.614,1.343
629.884,1.340
630.154,1.334
630.424,1.325
630.693,1.315
630.963,1.305
631.233,1.297
631.502,1.302
631.772,1.317
632.041,1.331
632.311,1.336
632.581,1.334
632.850,1.330
633.119,1.323
633.389,1.313
633.658,1.310
633.928,1.314
634.197,1.321
634.466,1.331
634.735,1.340
635.004,1.344
635.274,1.340
635.543,1.335
635.812,1.334
636.081,1.335
636.350,1.336
636.619,1.338
636.888,1.341
637.157,1.342
637.426,1.346
637.694,1.345
637.963,1.340
638.232,1.329
638.501,1.323
638.769,1.325
639.038,1.330
639.307,1.339
639.575,1.347
639.844,1.345
640.112,1.337
640.381,1.325
640.649,1.323
640.917,1.325
641.186,1.326
641.454,1.327
641.722,1.325
641.991,1.323
642.259,1.317
642.527,1.314
642.795,1.313
643.063,1.310
643.331,1.308
643.599,1.307
643.867,1.312
644.135,1.314
644.403,1.321
644.671,1.326
644.939,1.333
645.206,1.338
645.474,1.344
645.742,1.342
646.009,1.333
646.277,1.324
646.545,1.321
646.812,1.330
647.080,1.342
647.347,1.352
647.615,1.351
647.882,1.340
648.149,1.326
648.417,1.317
648.684,1.319
648.951,1.326
649.219,1.332
649.486,1.332
649.753,1.329
650.020,1.322
650.287,1.317
650.554,1.314
650.821,1.312
651.088,1.309
651.355,1.310
651.622,1.311
651.889,1.315
652.155,1.313
652.422,1.317
652.689,1.323
652.956,1.329
653.222,1.337
653.489,1.348
653.755,1.354
654.022,1.349
654.288,1.334
654.555,1.326
654.821,1.325
655.088,1.329
655.354,1.333
655.620,1.340
655.887,1.343
656.153,1.344
656.419,1.341
656.685,1.338
656.951,1.335
657.217,1.331
657.483,1.326
657.749,1.321
658.015,1.320
658.281,1.319
658.547,1.316
658.813,1.309
659.079,1.306
659.345,1.304
659.610,1.306
659.876,1.307
660.142,1.308
660.407,1.311
660.673,1.315
660.939,1.321
661.204,1.323
661.470,1.320
661.735,1.317
662.000,1.316
662.266,1.315
662.531,1.314
662.796,1.314
663.062,1.310
663.327,1.307
663.592,1.305
663.857,1.308
664.122,1.308
664.388,1.308
664.653,1.313
664.918,1.322
665.183,1.328
665.448,1.331
665.712,1.331
665.977,1.333
666.242,1.332
666.507,1.322
666.772,1.310
667.037,1.301
667.301,1.302
667.566,1.304
667.831,1.309
668.095,1.313
668.360,1.320
668.624,1.319
668.889,1.320
669.153,1.318
669.418,1.319
669.682,1.321
669.946,1.324
670.211,1.330
670.475,1.338
670.739,1.347
671.004,1.360
671.268,1.381
671.532,1.396
671.796,1.384
672.060,1.364
672.324,1.351
672.588,1.359
672.852,1.371
673.116,1.397
673.380,1.420
673.644,1.404
673.908,1.364
674.172,1.327
674.436,1.325
674.700,1.329
674.963,1.336
675.227,1.341
675.491,1.337
675.754,1.328
676.018,1.320
676.282,1.320
676.545,1.320
676.809,1.316
677.072,1.311
677.336,1.309
677.599,1.313
677.863,1.314
678.126,1.317
678.389,1.322
678.653,1.326
678.916,1.325
679.179,1.316
679.442,1.312
679.706,1.316
679.969,1.319
680.232,1.325
680.495,1.336
680.758,1.344
681.021,1.341
681.284,1.327
681.547,1.315
681.810,1.315
682.073,1.323
682.336,1.332
682.599,1.337
682.862,1.340
683.125,1.344
683.388,1.346
683.651,1.341
683.913,1.332
684.176,1.322
684.439,1.312
684.702,1.299
684.964,1.292
685.227,1.292
685.490,1.304
685.752,1.320
686.015,1.326
686.277,1.323
686.540,1.310
686.802,1.299
687.065,1.299
687.327,1.306
687.590,1.313
687.852,1.315
688.115,1.311
688.377,1.309
688.639,1.307
688.902,1.311
689.164,1.316
689.426,1.323
689.689,1.328
689.951,1.328
690.213,1.329
690.475,1.330
690.737,1.329
691.000,1.322
691.262,1.316
691.524,1.317
691.786,1.326
692.048,1.334
692.310,1.332
692.572,1.320
692.834,1.306
693.096,1.302
693.358,1.310
693.620,1.324
693.882,1.337
694.144,1.338
694.406,1.331
694.668,1.324
694.930,1.320
695.192,1.320
695.453,1.324
695.715,1.328
695.977,1.324
696.239,1.314
696.501,1.305
696.762,1.308
697.024,1.311
697.286,1.309
697.548,1.305
697.809,1.305
698.071,1.307
698.333,1.309
698.594,1.310
698.856,1.316
699.118,1.324
699.379,1.329
699.641,1.333
699.902,1.333
700.164,1.330
700.426,1.326
700.687,1.318
700.949,1.314
701.210,1.310
701.472,1.309
701.733,1.308
701.995,1.309
702.256,1.310
702.518,1.308
702.779,1.309
703.041,1.322
703.302,1.339
703.563,1.341
703.825,1.329
704.086,1.318
704.348,1.314
704.609,1.314
704.871,1.319
705.132,1.322
705.393,1.318
705.655,1.310
705.916,1.306
706.177,1.308
706.439,1.312
706.700,1.312
706.961,1.312
707.223,1.310
707.484,1.300
707.745,1.290
708.007,1.275
708.268,1.262
708.529,1.250
708.790,1.239
709.052,1.231
709.313,1.229
709.574,1.232
709.835,1.238
710.097,1.237
710.358,1.228
710.619,1.216
710.881,1.207
711.142,1.201
711.403,1.197
711.664,1.196
711.926,1.197
712.187,1.202
712.448,1.208
712.709,1.213
712.970,1.216
713.232,1.218
713.493,1.219
713.754,1.218
714.015,1.221
714.277,1.227
714.538,1.236
714.799,1.244
715.060,1.242
715.322,1.237
715.583,1.231
715.844,1.227
716.105,1.221
716.367,1.216
716.628,1.217
716.889,1.218
717.150,1.214
717.411,1.206
717.673,1.205
717.934,1.210
718.195,1.217
718.457,1.214
718.718,1.206
718.979,1.202
719.240,1.206
719.502,1.212
719.763,1.216
720.024,1.219
720.286,1.219
720.547,1.211
720.808,1.204
721.069,1.199
721.331,1.204
721.592,1.211
721.853,1.214
722.115,1.216
722.376,1.218
722.638,1.221
722.899,1.217
723.160,1.209
723.422,1.203
723.683,1.201
723.944,1.203
724.206,1.204
724.467,1.204
724.729,1.203
724.990,1.208
725.252,1.214
725.513,1.213
725.775,1.204
726.036,1.196
726.298,1.196
726.559,1.200
726.821,1.203
727.082,1.203
727.344,1.200
727.605,1.200
727.867,1.199
728.128,1.198
728.390,1.198
728.652,1.203
728.913,1.213
729.175,1.217
729.436,1.218
729.698,1.217
729.960,1.214
730.221,1.209
730.483,1.200
730.745,1.198
731.007,1.197
731.268,1.199
731.530,1.200
731.792,1.202
732.054,1.206
732.315,1.209
732.577,1.214
732.839,1.213
733.101,1.206
733.363,1.200
733.625,1.199
733.887,1.204
734.149,1.208
734.411,1.211
734.673,1.211
734.935,1.210
735.197,1.208
735.459,1.209
735.721,1.212
735.983,1.210
736.245,1.201
736.507,1.199
736.769,1.205
737.031,1.211
737.293,1.206
737.555,1.198
737.818,1.193
738.080,1.190
738.342,1.186
738.604,1.181
738.867,1.181
739.129,1.181
739.391,1.183
739.654,1.184
739.916,1.187
740.178,1.194
740.441,1.203
740.703,1.207
740.966,1.206
741.228,1.202
741.491,1.197
741.753,1.197
742.016,1.198
742.278,1.202
742.541,1.205
742.804,1.207
743.066,1.210
743.329,1.213
743.592,1.214
743.854,1.213
744.117,1.213
744.380,1.212
744.643,1.205
744.905,1.195
745.168,1.190
745.431,1.189
745.694,1.189
745.957,1.187
746.220,1.185
746.483,1.184
746.746,1.185
747.009,1.194
