Wavelength (nm),Intensity B24,,C:/Users/Brend/Desktop/LED Spectras v2/Spectrometer Data (Blue Condensed).sp,,,B24,
379.792,1.844,,2018-06-26 15:22:16,,Integration Time,125 ms,
380.000,1.839,,Analyze Light,,Number of Scans to Average,25,
380.209,1.835,,,,Smoothing,1,
380.418,1.842
380.627,1.858
380.837,1.876
381.048,1.888
381.259,1.891
381.471,1.892
381.683,1.900
381.896,1.912
382.110,1.918
382.324,1.925
382.538,1.933
382.753,1.944
382.969,1.941
383.185,1.936
383.402,1.930
383.619,1.936
383.837,1.946
384.055,1.968
384.274,1.989
384.493,2.002
384.712,2.004
384.932,2.005
385.153,2.006
385.374,2.010
385.596,2.017
385.818,2.036
386.040,2.056
386.263,2.075
386.487,2.079
386.710,2.077
386.935,2.069
387.159,2.066
387.385,2.064
387.610,2.068
387.836,2.074
388.063,2.090
388.289,2.101
388.517,2.109
388.744,2.106
388.972,2.114
389.201,2.121
389.430,2.136
389.659,2.145
389.889,2.156
390.119,2.163
390.349,2.170
390.580,2.173
390.811,2.174
391.042,2.173
391.274,2.177
391.507,2.185
391.739,2.190
391.972,2.191
392.205,2.194
392.439,2.203
392.673,2.215
392.907,2.229
393.142,2.248
393.377,2.266
393.612,2.282
393.848,2.290
394.084,2.297
394.320,2.300
394.557,2.313
394.794,2.320
395.031,2.331
395.269,2.335
395.507,2.343
395.745,2.346
395.983,2.351
396.222,2.358
396.461,2.373
396.700,2.390
396.940,2.402
397.180,2.406
397.420,2.406
397.660,2.405
397.901,2.405
398.142,2.406
398.383,2.410
398.625,2.411
398.866,2.420
399.108,2.435
399.351,2.463
399.593,2.476
399.836,2.481
400.079,2.471
400.322,2.469
400.566,2.466
400.809,2.469
401.053,2.474
401.298,2.484
401.542,2.498
401.787,2.516
402.031,2.528
402.277,2.535
402.522,2.534
402.767,2.541
403.013,2.541
403.259,2.546
403.505,2.547
403.752,2.554
403.998,2.557
404.245,2.573
404.492,2.589
404.739,2.603
404.986,2.609
405.234,2.615
405.482,2.617
405.730,2.618
405.978,2.623
406.226,2.631
406.475,2.632
406.723,2.635
406.972,2.646
407.221,2.664
407.470,2.674
407.720,2.684
407.969,2.681
408.219,2.689
408.469,2.698
408.719,2.716
408.969,2.725
409.219,2.731
409.470,2.735
409.720,2.742
409.971,2.749
410.222,2.770
410.473,2.777
410.724,2.782
410.976,2.780
411.227,2.795
411.479,2.810
411.731,2.825
411.983,2.828
412.235,2.829
412.487,2.824
412.740,2.830
412.992,2.841
413.245,2.857
413.497,2.865
413.750,2.867
414.003,2.861
414.257,2.858
414.510,2.853
414.763,2.861
415.017,2.867
415.270,2.876
415.524,2.870
415.778,2.868
416.032,2.867
416.286,2.885
416.540,2.899
416.794,2.916
417.049,2.918
417.303,2.923
417.558,2.921
417.812,2.925
418.067,2.927
418.322,2.937
418.577,2.940
418.832,2.941
419.088,2.926
419.343,2.922
419.598,2.913
419.854,2.918
420.109,2.922
420.365,2.940
420.621,2.950
420.876,2.959
421.132,2.958
421.388,2.960
421.645,2.958
421.901,2.965
422.157,2.968
422.413,2.977
422.670,2.982
422.926,2.995
423.183,2.997
423.439,3.011
423.696,3.025
423.953,3.060
424.210,3.088
424.467,3.107
424.724,3.112
424.981,3.114
425.238,3.127
425.495,3.158
425.753,3.188
426.010,3.221
426.267,3.244
426.525,3.284
426.782,3.325
427.040,3.376
427.298,3.422
427.555,3.476
427.813,3.521
428.071,3.565
428.329,3.610
428.587,3.669
428.845,3.739
429.103,3.816
429.361,3.890
429.619,3.966
429.878,4.036
430.136,4.119
430.394,4.201
430.653,4.313
430.911,4.435
431.170,4.580
431.428,4.709
431.687,4.840
431.946,4.960
432.204,5.091
432.463,5.230
432.722,5.381
432.981,5.531
433.240,5.698
433.499,5.872
433.758,6.077
434.017,6.273
434.276,6.478
434.535,6.672
434.794,6.886
435.053,7.110
435.312,7.350
435.572,7.601
435.831,7.869
436.090,8.144
436.350,8.429
436.609,8.726
436.869,9.043
437.128,9.365
437.388,9.693
437.647,10.025
437.907,10.383
438.166,10.759
438.426,11.149
438.686,11.544
438.946,11.957
439.205,12.400
439.465,12.871
439.725,13.363
439.985,13.879
440.245,14.399
440.505,14.935
440.765,15.476
441.025,16.033
441.285,16.611
441.545,17.212
441.805,17.845
442.065,18.509
442.325,19.199
442.585,19.937
442.846,20.691
443.106,21.521
443.366,22.386
443.626,23.301
443.887,24.234
444.147,25.195
444.407,26.194
444.668,27.242
444.928,28.351
445.189,29.518
445.449,30.725
445.710,31.988
445.970,33.314
446.231,34.712
446.491,36.183
446.752,37.720
447.012,39.311
447.273,40.957
447.534,42.640
447.794,44.379
448.055,46.175
448.316,48.068
448.577,50.048
448.837,52.101
449.098,54.211
449.359,56.349
449.620,58.480
449.881,60.616
450.142,62.766
450.403,64.978
450.664,67.212
450.924,69.462
451.185,71.698
451.446,73.906
451.707,76.081
451.969,78.208
452.230,80.258
452.491,82.178
452.752,83.889
453.013,85.348
453.274,86.550
453.535,87.547
453.796,88.397
454.058,89.148
454.319,89.805
454.580,90.371
454.841,90.829
455.103,91.192
455.364,91.466
455.625,91.683
455.887,91.848
456.148,91.958
456.409,92.010
456.671,92.007
456.932,91.949
457.194,91.836
457.455,91.673
457.716,91.464
457.978,91.204
458.239,90.871
458.501,90.477
458.763,90.016
459.024,89.492
459.286,88.896
459.547,88.225
459.809,87.463
460.071,86.559
460.332,85.473
460.594,84.176
460.856,82.681
461.117,81.027
461.379,79.303
461.641,77.547
461.903,75.797
462.164,74.064
462.426,72.352
462.688,70.676
462.950,69.022
463.212,67.414
463.474,65.840
463.736,64.313
463.998,62.856
464.260,61.470
464.522,60.149
464.784,58.880
465.046,57.666
465.308,56.524
465.570,55.432
465.832,54.417
466.094,53.447
466.356,52.519
466.618,51.596
466.880,50.685
467.142,49.795
467.405,48.931
467.667,48.113
467.929,47.311
468.191,46.531
468.454,45.745
468.716,44.983
468.978,44.205
469.241,43.425
469.503,42.636
469.765,41.884
470.028,41.157
470.290,40.447
470.552,39.731
470.815,39.016
471.077,38.290
471.340,37.553
471.602,36.805
471.865,36.041
472.128,35.285
472.390,34.530
472.653,33.797
472.915,33.061
473.178,32.334
473.441,31.593
473.703,30.846
473.966,30.078
474.229,29.320
474.492,28.564
474.755,27.835
475.017,27.120
475.280,26.422
475.543,25.743
475.806,25.059
476.069,24.391
476.332,23.716
476.595,23.065
476.858,22.411
477.121,21.777
477.384,21.172
477.647,20.603
477.910,20.059
478.173,19.524
478.436,18.995
478.699,18.482
478.962,17.991
479.226,17.537
479.489,17.091
479.752,16.661
480.015,16.233
480.279,15.832
480.542,15.436
480.805,15.051
481.069,14.661
481.332,14.286
481.595,13.928
481.859,13.612
482.122,13.306
482.386,13.008
482.649,12.697
482.913,12.400
483.177,12.105
483.440,11.828
483.704,11.553
483.967,11.299
484.231,11.039
484.495,10.799
484.759,10.558
485.022,10.319
485.286,10.075
485.550,9.838
485.814,9.591
486.078,9.342
486.342,9.107
486.606,8.906
486.869,8.710
487.133,8.517
487.397,8.320
487.662,8.137
487.926,7.940
488.190,7.746
488.454,7.534
488.718,7.333
488.982,7.123
489.246,6.932
489.511,6.743
489.775,6.572
490.039,6.400
490.304,6.229
490.568,6.049
490.832,5.883
491.097,5.723
491.361,5.584
491.626,5.439
491.890,5.304
492.155,5.165
492.419,5.038
492.684,4.897
492.949,4.754
493.213,4.610
493.478,4.489
493.743,4.366
494.008,4.242
494.272,4.118
494.537,4.019
494.802,3.928
495.067,3.848
495.332,3.764
495.597,3.688
495.862,3.599
496.127,3.516
496.392,3.428
496.657,3.349
496.922,3.268
497.187,3.196
497.452,3.126
497.718,3.070
497.983,3.010
498.248,2.951
498.513,2.883
498.779,2.837
499.044,2.803
499.310,2.765
499.575,2.706
499.841,2.651
500.106,2.603
500.372,2.562
500.637,2.519
500.903,2.490
501.168,2.462
501.434,2.429
501.700,2.381
501.966,2.343
502.231,2.304
502.497,2.273
502.763,2.238
503.029,2.207
503.295,2.178
503.561,2.154
503.827,2.136
504.093,2.120
504.359,2.099
504.625,2.077
504.891,2.051
505.157,2.034
505.423,2.008
505.690,1.978
505.956,1.949
506.222,1.935
506.489,1.938
506.755,1.943
507.021,1.938
507.288,1.927
507.554,1.905
507.821,1.888
508.087,1.874
508.354,1.874
508.621,1.867
508.887,1.846
509.154,1.821
509.421,1.804
509.687,1.790
509.954,1.777
510.221,1.763
510.488,1.759
510.755,1.756
511.022,1.755
511.289,1.741
511.556,1.727
511.823,1.713
512.090,1.715
512.357,1.712
512.624,1.707
512.891,1.694
513.159,1.680
513.426,1.668
513.693,1.660
513.960,1.658
514.228,1.655
514.495,1.650
514.763,1.641
515.030,1.631
515.298,1.624
515.565,1.622
515.833,1.620
516.100,1.615
516.368,1.609
516.636,1.604
516.904,1.603
517.171,1.596
517.439,1.590
517.707,1.578
517.975,1.575
518.243,1.575
518.511,1.575
518.779,1.563
519.047,1.558
519.315,1.555
519.583,1.550
519.851,1.532
520.119,1.519
520.387,1.514
520.656,1.514
520.924,1.514
521.192,1.520
521.461,1.524
521.729,1.527
521.997,1.528
522.266,1.524
522.534,1.518
522.803,1.514
523.071,1.510
523.340,1.499
523.609,1.485
523.877,1.475
524.146,1.473
524.415,1.474
524.684,1.476
524.952,1.474
525.221,1.475
525.490,1.483
525.759,1.490
526.028,1.491
526.297,1.477
526.566,1.467
526.835,1.459
527.104,1.461
527.373,1.463
527.642,1.458
527.912,1.448
528.181,1.439
528.450,1.444
528.719,1.451
528.989,1.462
529.258,1.469
529.528,1.471
529.797,1.467
530.067,1.466
530.336,1.462
530.606,1.454
530.875,1.441
531.145,1.435
531.414,1.438
531.684,1.447
531.954,1.451
532.224,1.446
532.493,1.435
532.763,1.428
533.033,1.426
533.303,1.431
533.573,1.433
533.843,1.428
534.113,1.421
534.383,1.413
534.653,1.416
534.923,1.421
535.193,1.426
535.463,1.431
535.733,1.436
536.004,1.445
536.274,1.446
536.544,1.439
536.814,1.425
537.085,1.415
537.355,1.416
537.626,1.430
537.896,1.439
538.166,1.443
538.437,1.439
538.707,1.436
538.978,1.436
539.249,1.443
539.519,1.445
539.790,1.439
540.061,1.431
540.331,1.433
540.602,1.445
540.873,1.455
541.144,1.458
541.414,1.457
541.685,1.454
541.956,1.452
542.227,1.451
542.498,1.444
542.769,1.439
543.040,1.439
543.311,1.448
543.582,1.461
543.853,1.468
544.124,1.475
544.396,1.477
544.667,1.476
544.938,1.469
545.209,1.450
545.480,1.439
545.752,1.433
546.023,1.441
546.294,1.438
546.566,1.428
546.837,1.415
547.109,1.409
547.380,1.406
547.652,1.406
547.923,1.409
548.195,1.420
548.466,1.433
548.738,1.443
549.009,1.438
549.281,1.428
549.553,1.414
549.824,1.400
550.096,1.389
550.368,1.384
550.640,1.386
550.911,1.393
551.183,1.406
551.455,1.428
551.727,1.440
551.999,1.439
552.271,1.424
552.543,1.412
552.815,1.407
553.087,1.410
553.359,1.415
553.631,1.419
553.903,1.419
554.175,1.420
554.447,1.423
554.719,1.426
554.991,1.427
555.263,1.425
555.535,1.419
555.808,1.411
556.080,1.403
556.352,1.399
556.624,1.396
556.897,1.393
557.169,1.391
557.441,1.390
557.714,1.388
557.986,1.387
558.258,1.384
558.531,1.390
558.803,1.396
559.076,1.404
559.348,1.401
559.621,1.397
559.893,1.396
560.166,1.398
560.438,1.396
560.711,1.391
560.983,1.386
561.256,1.388
561.528,1.394
561.801,1.404
562.074,1.414
562.346,1.422
562.619,1.423
562.892,1.416
563.164,1.408
563.437,1.406
563.710,1.404
563.983,1.398
564.255,1.389
564.528,1.390
564.801,1.402
565.074,1.410
565.346,1.405
565.619,1.396
565.892,1.393
566.165,1.393
566.438,1.388
566.711,1.382
566.984,1.378
567.257,1.378
567.529,1.382
567.802,1.393
568.075,1.403
568.348,1.403
568.621,1.399
568.894,1.392
569.167,1.387
569.440,1.378
569.713,1.368
569.986,1.365
570.259,1.365
570.532,1.374
570.805,1.381
571.078,1.385
571.351,1.386
571.625,1.386
571.898,1.380
572.171,1.369
572.444,1.361
572.717,1.366
572.990,1.378
573.263,1.382
573.536,1.377
573.809,1.366
574.083,1.359
574.356,1.361
574.629,1.375
574.902,1.388
575.175,1.389
575.448,1.378
575.721,1.367
575.995,1.364
576.268,1.364
576.541,1.370
576.814,1.376
577.087,1.380
577.361,1.380
577.634,1.376
577.907,1.370
578.180,1.362
578.453,1.356
578.727,1.357
579.000,1.359
579.273,1.364
579.546,1.373
579.820,1.387
580.093,1.392
580.366,1.383
580.639,1.368
580.913,1.357
581.186,1.355
581.459,1.357
581.732,1.351
582.005,1.347
582.279,1.340
582.552,1.343
582.825,1.348
583.098,1.356
583.372,1.363
583.645,1.369
583.918,1.374
584.191,1.373
584.464,1.370
584.738,1.368
585.011,1.368
585.284,1.364
585.557,1.358
585.831,1.357
586.104,1.369
586.377,1.388
586.650,1.399
586.923,1.399
587.196,1.395
587.470,1.388
587.743,1.383
588.016,1.377
588.289,1.379
588.562,1.383
588.835,1.382
589.109,1.372
589.382,1.361
589.655,1.353
589.928,1.351
590.201,1.351
590.474,1.358
590.747,1.366
591.020,1.377
591.293,1.382
591.567,1.380
591.840,1.370
592.113,1.362
592.386,1.354
592.659,1.349
592.932,1.347
593.205,1.352
593.478,1.355
593.751,1.354
594.024,1.352
594.297,1.346
594.570,1.342
594.843,1.349
595.116,1.361
595.389,1.368
595.662,1.364
595.934,1.359
596.207,1.362
596.480,1.371
596.753,1.382
597.026,1.383
597.299,1.381
597.572,1.378
597.844,1.375
598.117,1.369
598.390,1.363
598.663,1.359
598.936,1.358
599.208,1.361
599.481,1.367
599.754,1.371
600.026,1.364
600.299,1.354
600.572,1.346
600.844,1.342
601.117,1.338
601.390,1.336
601.662,1.336
601.935,1.339
602.207,1.340
602.480,1.345
602.752,1.344
603.025,1.338
603.297,1.334
603.570,1.341
603.842,1.357
604.115,1.365
604.387,1.369
604.660,1.364
604.932,1.358
605.204,1.354
605.477,1.358
605.749,1.366
606.021,1.376
606.294,1.381
606.566,1.378
606.838,1.375
607.110,1.376
607.383,1.384
607.655,1.391
607.927,1.398
608.199,1.403
608.471,1.404
608.743,1.395
609.015,1.385
609.287,1.379
609.559,1.381
609.831,1.386
610.103,1.390
610.375,1.389
610.647,1.381
610.919,1.371
611.191,1.369
611.463,1.373
611.735,1.376
612.007,1.370
612.278,1.363
612.550,1.356
612.822,1.358
613.094,1.360
613.365,1.361
613.637,1.364
613.909,1.367
614.180,1.372
614.452,1.370
614.723,1.365
614.995,1.359
615.266,1.358
615.538,1.365
615.809,1.373
616.081,1.373
616.352,1.368
616.623,1.362
616.895,1.361
617.166,1.359
617.437,1.358
617.709,1.359
617.980,1.364
618.251,1.370
618.522,1.375
618.793,1.383
619.065,1.390
619.336,1.386
619.607,1.373
619.878,1.367
620.149,1.372
620.420,1.377
620.691,1.372
620.962,1.370
621.232,1.374
621.503,1.376
621.774,1.372
622.045,1.366
622.316,1.370
622.586,1.376
622.857,1.385
623.128,1.388
623.398,1.387
623.669,1.381
623.940,1.371
624.210,1.361
624.481,1.363
624.751,1.368
625.021,1.369
625.292,1.362
625.562,1.359
625.833,1.357
626.103,1.352
626.373,1.343
626.643,1.343
626.914,1.348
627.184,1.356
627.454,1.356
627.724,1.355
627.994,1.354
628.264,1.351
628.534,1.344
628.804,1.338
629.074,1.339
629.344,1.347
629.614,1.350
629.884,1.346
630.154,1.339
630.424,1.333
630.693,1.327
630.963,1.318
631.233,1.310
631.502,1.312
631.772,1.326
632.041,1.344
632.311,1.354
632.581,1.355
632.850,1.348
633.119,1.336
633.389,1.325
633.658,1.321
633.928,1.327
634.197,1.337
634.466,1.348
634.735,1.356
635.004,1.354
635.274,1.347
635.543,1.338
635.812,1.335
636.081,1.334
636.350,1.332
636.619,1.333
636.888,1.335
637.157,1.340
637.426,1.341
637.694,1.340
637.963,1.338
638.232,1.336
638.501,1.334
638.769,1.336
639.038,1.343
639.307,1.356
639.575,1.365
639.844,1.362
640.112,1.353
640.381,1.341
640.649,1.338
640.917,1.342
641.186,1.344
641.454,1.343
641.722,1.337
641.991,1.336
642.259,1.330
642.527,1.326
642.795,1.323
643.063,1.316
643.331,1.312
643.599,1.311
643.867,1.319
644.135,1.325
644.403,1.334
644.671,1.338
644.939,1.345
645.206,1.350
645.474,1.354
645.742,1.346
646.009,1.329
646.277,1.319
646.545,1.320
646.812,1.335
647.080,1.354
647.347,1.365
647.615,1.365
647.882,1.352
648.149,1.337
648.417,1.327
648.684,1.329
648.951,1.339
649.219,1.352
649.486,1.356
649.753,1.353
650.020,1.341
650.287,1.330
650.554,1.323
650.821,1.319
651.088,1.319
651.355,1.327
651.622,1.335
651.889,1.340
652.155,1.336
652.422,1.336
652.689,1.343
652.956,1.349
653.222,1.354
653.489,1.362
653.755,1.368
654.022,1.366
654.288,1.351
654.555,1.342
654.821,1.341
655.088,1.344
655.354,1.345
655.620,1.348
655.887,1.350
656.153,1.354
656.419,1.353
656.685,1.353
656.951,1.351
657.217,1.346
657.483,1.339
657.749,1.333
658.015,1.333
658.281,1.335
658.547,1.331
658.813,1.325
659.079,1.317
659.345,1.313
659.610,1.313
659.876,1.314
660.142,1.317
660.407,1.318
660.673,1.324
660.939,1.332
661.204,1.335
661.470,1.331
661.735,1.328
662.000,1.331
662.266,1.331
662.531,1.327
662.796,1.324
663.062,1.324
663.327,1.326
663.592,1.328
663.857,1.330
664.122,1.327
664.388,1.325
664.653,1.327
664.918,1.333
665.183,1.337
665.448,1.342
665.712,1.348
665.977,1.353
666.242,1.349
666.507,1.332
666.772,1.315
667.037,1.301
667.301,1.301
667.566,1.305
667.831,1.313
668.095,1.319
668.360,1.325
668.624,1.324
668.889,1.328
669.153,1.326
669.418,1.326
669.682,1.324
669.946,1.328
670.211,1.335
670.475,1.344
670.739,1.354
671.004,1.363
671.268,1.380
671.532,1.395
671.796,1.387
672.060,1.371
672.324,1.356
672.588,1.363
672.852,1.376
673.116,1.406
673.380,1.430
673.644,1.413
673.908,1.373
674.172,1.340
674.436,1.342
674.700,1.346
674.963,1.350
675.227,1.352
675.491,1.350
675.754,1.347
676.018,1.343
676.282,1.346
676.545,1.344
676.809,1.338
677.072,1.330
677.336,1.325
677.599,1.328
677.863,1.326
678.126,1.328
678.389,1.334
678.653,1.342
678.916,1.344
679.179,1.335
679.442,1.331
679.706,1.333
679.969,1.339
680.232,1.344
680.495,1.353
680.758,1.359
681.021,1.357
681.284,1.348
681.547,1.341
681.810,1.344
682.073,1.354
682.336,1.360
682.599,1.357
682.862,1.352
683.125,1.351
683.388,1.351
683.651,1.348
683.913,1.345
684.176,1.336
684.439,1.325
684.702,1.314
684.964,1.313
685.227,1.319
685.490,1.329
685.752,1.343
686.015,1.351
686.277,1.350
686.540,1.341
686.802,1.332
687.065,1.328
687.327,1.327
687.590,1.329
687.852,1.325
688.115,1.317
688.377,1.311
688.639,1.310
688.902,1.313
689.164,1.320
689.426,1.330
689.689,1.338
689.951,1.338
690.213,1.335
690.475,1.334
690.737,1.334
691.000,1.329
691.262,1.324
691.524,1.325
691.786,1.337
692.048,1.352
692.310,1.356
692.572,1.344
692.834,1.329
693.096,1.326
693.358,1.334
693.620,1.344
693.882,1.350
694.144,1.348
694.406,1.340
694.668,1.334
694.930,1.330
695.192,1.329
695.453,1.328
695.715,1.327
695.977,1.324
696.239,1.317
696.501,1.317
696.762,1.324
697.024,1.331
697.286,1.329
697.548,1.324
697.809,1.319
698.071,1.317
698.333,1.319
698.594,1.321
698.856,1.326
699.118,1.328
699.379,1.332
699.641,1.340
699.902,1.350
700.164,1.354
700.426,1.348
700.687,1.339
700.949,1.333
701.210,1.328
701.472,1.321
701.733,1.313
701.995,1.313
702.256,1.315
702.518,1.316
702.779,1.314
703.041,1.327
703.302,1.341
703.563,1.341
703.825,1.330
704.086,1.321
704.348,1.320
704.609,1.323
704.871,1.331
705.132,1.341
705.393,1.341
705.655,1.335
705.916,1.327
706.177,1.328
706.439,1.329
706.700,1.326
706.961,1.323
707.223,1.321
707.484,1.312
707.745,1.304
708.007,1.295
708.268,1.287
708.529,1.274
708.790,1.257
709.052,1.248
709.313,1.247
709.574,1.252
709.835,1.255
710.097,1.248
710.358,1.236
710.619,1.224
710.881,1.217
711.142,1.213
711.403,1.209
711.664,1.202
711.926,1.195
712.187,1.195
712.448,1.202
712.709,1.215
712.970,1.225
713.232,1.230
713.493,1.232
713.754,1.229
714.015,1.229
714.277,1.234
714.538,1.242
714.799,1.255
715.060,1.264
715.322,1.265
715.583,1.257
715.844,1.245
716.105,1.233
716.367,1.221
716.628,1.216
716.889,1.213
717.150,1.210
717.411,1.209
717.673,1.216
717.934,1.226
718.195,1.230
718.457,1.224
718.718,1.213
718.979,1.209
719.240,1.214
719.502,1.225
719.763,1.232
720.024,1.238
720.286,1.240
720.547,1.234
720.808,1.223
721.069,1.214
721.331,1.214
721.592,1.220
721.853,1.224
722.115,1.227
722.376,1.229
722.638,1.232
722.899,1.229
723.160,1.225
723.422,1.221
723.683,1.218
723.944,1.219
724.206,1.216
724.467,1.213
724.729,1.208
724.990,1.216
725.252,1.225
725.513,1.224
725.775,1.214
726.036,1.207
726.298,1.208
726.559,1.212
726.821,1.213
727.082,1.216
727.344,1.217
727.605,1.218
727.867,1.213
728.128,1.213
728.390,1.214
728.652,1.224
728.913,1.237
729.175,1.245
729.436,1.247
729.698,1.245
729.960,1.238
730.221,1.229
730.483,1.214
730.745,1.212
731.007,1.214
731.268,1.219
731.530,1.222
731.792,1.224
732.054,1.226
732.315,1.228
732.577,1.230
732.839,1.226
733.101,1.219
733.363,1.211
733.625,1.211
733.887,1.216
734.149,1.221
734.411,1.225
734.673,1.229
734.935,1.233
735.197,1.230
735.459,1.228
735.721,1.226
735.983,1.223
736.245,1.217
736.507,1.219
736.769,1.228
737.031,1.234
737.293,1.228
737.555,1.217
737.818,1.210
738.080,1.203
738.342,1.201
738.604,1.200
738.867,1.204
739.129,1.205
739.391,1.203
739.654,1.201
739.916,1.202
740.178,1.208
740.441,1.217
740.703,1.226
740.966,1.225
741.228,1.219
741.491,1.213
741.753,1.215
742.016,1.217
742.278,1.218
742.541,1.218
742.804,1.218
743.066,1.221
743.329,1.222
743.592,1.219
743.854,1.216
744.117,1.219
744.380,1.221
744.643,1.218
744.905,1.213
745.168,1.211
745.431,1.212
745.694,1.211
745.957,1.210
746.220,1.208
746.483,1.204
746.746,1.201
747.009,1.207
