Wavelength (nm),Intensity Source #100,,C:/Users/Brend/Desktop/LED Spectras v2/Spectrometer Data.sp,,,Source #100,
379.792,1.879,,2018-06-14 10:09:03,,Integration Time,157 ms,
380.000,1.877,,Analyze Light,,Number of Scans to Average,25,
380.209,1.879,,,,Smoothing,1,
380.418,1.891
380.627,1.907
380.837,1.922
381.048,1.932
381.259,1.934
381.471,1.934
381.683,1.936
381.896,1.946
382.110,1.951
382.324,1.962
382.538,1.978
382.753,1.994
382.969,1.994
383.185,1.986
383.402,1.979
383.619,1.986
383.837,1.997
384.055,2.017
384.274,2.034
384.493,2.049
384.712,2.053
384.932,2.058
385.153,2.065
385.374,2.074
385.596,2.080
385.818,2.094
386.040,2.112
386.263,2.131
386.487,2.134
386.710,2.130
386.935,2.118
387.159,2.115
387.385,2.111
387.610,2.111
387.836,2.112
388.063,2.121
388.289,2.131
388.517,2.138
388.744,2.143
388.972,2.161
389.201,2.175
389.430,2.190
389.659,2.200
389.889,2.213
390.119,2.221
390.349,2.228
390.580,2.235
390.811,2.239
391.042,2.237
391.274,2.238
391.507,2.244
391.739,2.245
391.972,2.241
392.205,2.243
392.439,2.254
392.673,2.267
392.907,2.277
393.142,2.290
393.377,2.306
393.612,2.324
393.848,2.334
394.084,2.344
394.320,2.349
394.557,2.361
394.794,2.369
395.031,2.385
395.269,2.398
395.507,2.409
395.745,2.410
395.983,2.413
396.222,2.422
396.461,2.444
396.700,2.470
396.940,2.491
397.180,2.500
397.420,2.500
397.660,2.494
397.901,2.489
398.142,2.491
398.383,2.497
398.625,2.499
398.866,2.506
399.108,2.525
399.351,2.559
399.593,2.571
399.836,2.572
400.079,2.559
400.322,2.554
400.566,2.547
400.809,2.547
401.053,2.555
401.298,2.568
401.542,2.582
401.787,2.597
402.031,2.612
402.277,2.631
402.522,2.644
402.767,2.655
403.013,2.651
403.259,2.656
403.505,2.657
403.752,2.664
403.998,2.664
404.245,2.683
404.492,2.704
404.739,2.721
404.986,2.727
405.234,2.733
405.482,2.737
405.730,2.733
405.978,2.730
406.226,2.727
406.475,2.723
406.723,2.725
406.972,2.735
407.221,2.751
407.470,2.759
407.720,2.768
407.969,2.767
408.219,2.781
408.469,2.797
408.719,2.818
408.969,2.823
409.219,2.830
409.470,2.834
409.720,2.845
409.971,2.855
410.222,2.874
410.473,2.884
410.724,2.889
410.976,2.892
411.227,2.903
411.479,2.914
411.731,2.925
411.983,2.926
412.235,2.930
412.487,2.928
412.740,2.937
412.992,2.943
413.245,2.955
413.497,2.958
413.750,2.961
414.003,2.955
414.257,2.952
414.510,2.953
414.763,2.970
415.017,2.985
415.270,2.993
415.524,2.988
415.778,2.987
416.032,2.991
416.286,3.011
416.540,3.026
416.794,3.049
417.049,3.054
417.303,3.061
417.558,3.062
417.812,3.066
418.067,3.069
418.322,3.072
418.577,3.066
418.832,3.059
419.088,3.042
419.343,3.043
419.598,3.035
419.854,3.040
420.109,3.042
420.365,3.065
420.621,3.079
420.876,3.096
421.132,3.096
421.388,3.091
421.645,3.078
421.901,3.081
422.157,3.090
422.413,3.105
422.670,3.107
422.926,3.115
423.183,3.110
423.439,3.120
423.696,3.130
423.953,3.161
424.210,3.184
424.467,3.193
424.724,3.188
424.981,3.173
425.238,3.167
425.495,3.180
425.753,3.198
426.010,3.219
426.267,3.228
426.525,3.252
426.782,3.274
427.040,3.302
427.298,3.332
427.555,3.374
427.813,3.409
428.071,3.441
428.329,3.470
428.587,3.507
428.845,3.543
429.103,3.582
429.361,3.621
429.619,3.670
429.878,3.719
430.136,3.781
430.394,3.838
430.653,3.913
430.911,3.995
431.170,4.090
431.428,4.170
431.687,4.252
431.946,4.333
432.204,4.432
432.463,4.540
432.722,4.660
432.981,4.778
433.240,4.902
433.499,5.032
433.758,5.180
434.017,5.318
434.276,5.463
434.535,5.604
434.794,5.768
435.053,5.940
435.312,6.135
435.572,6.330
435.831,6.543
436.090,6.764
436.350,7.002
436.609,7.237
436.869,7.473
437.128,7.719
437.388,7.980
437.647,8.258
437.907,8.557
438.166,8.867
438.426,9.189
438.686,9.509
438.946,9.849
439.205,10.202
439.465,10.591
439.725,11.000
439.985,11.434
440.245,11.855
440.505,12.293
440.765,12.730
441.025,13.186
441.285,13.658
441.545,14.153
441.805,14.661
442.065,15.190
442.325,15.734
442.585,16.323
442.846,16.936
443.106,17.593
443.366,18.268
443.626,18.954
443.887,19.660
444.147,20.395
444.407,21.176
444.668,21.984
444.928,22.819
445.189,23.682
445.449,24.591
445.710,25.548
445.970,26.554
446.231,27.608
446.491,28.702
446.752,29.824
447.012,30.980
447.273,32.189
447.534,33.453
447.794,34.756
448.055,36.094
448.316,37.498
448.577,38.975
448.837,40.537
449.098,42.160
449.359,43.838
449.620,45.544
449.881,47.286
450.142,49.061
450.403,50.898
450.664,52.802
450.924,54.771
451.185,56.777
451.446,58.814
451.707,60.892
451.969,63.024
452.230,65.193
452.491,67.365
452.752,69.513
453.013,71.634
453.274,73.726
453.535,75.796
453.796,77.816
454.058,79.774
454.319,81.625
454.580,83.306
454.841,84.767
455.103,85.970
455.364,86.968
455.625,87.823
455.887,88.596
456.148,89.291
456.409,89.900
456.671,90.424
456.932,90.862
457.194,91.219
457.455,91.502
457.716,91.721
457.978,91.886
458.239,91.990
458.501,92.043
458.763,92.052
459.024,92.019
459.286,91.944
459.547,91.817
459.809,91.630
460.071,91.379
460.332,91.064
460.594,90.683
460.856,90.244
461.117,89.736
461.379,89.155
461.641,88.489
461.903,87.719
462.164,86.827
462.426,85.768
462.688,84.495
462.950,82.995
463.212,81.301
463.474,79.485
463.736,77.607
463.998,75.721
464.260,73.877
464.522,72.068
464.784,70.293
465.046,68.534
465.308,66.819
465.570,65.162
465.832,63.569
466.094,62.042
466.356,60.562
466.618,59.135
466.880,57.760
467.142,56.448
467.405,55.201
467.667,54.041
467.929,52.949
468.191,51.918
468.454,50.915
468.716,49.949
468.978,48.994
469.241,48.072
469.503,47.178
469.765,46.353
470.028,45.557
470.290,44.802
470.552,44.061
470.815,43.351
471.077,42.644
471.340,41.967
471.602,41.303
471.865,40.653
472.128,39.994
472.390,39.327
472.653,38.654
472.915,37.972
473.178,37.296
473.441,36.613
473.703,35.919
473.966,35.194
474.229,34.446
474.492,33.686
474.755,32.919
475.017,32.186
475.280,31.459
475.543,30.750
475.806,30.014
476.069,29.274
476.332,28.507
476.595,27.762
476.858,27.018
477.121,26.300
477.384,25.582
477.647,24.898
477.910,24.223
478.173,23.562
478.436,22.901
478.699,22.256
478.962,21.629
479.226,21.028
479.489,20.438
479.752,19.862
480.015,19.281
480.279,18.716
480.542,18.158
480.805,17.616
481.069,17.090
481.332,16.602
481.595,16.147
481.859,15.726
482.122,15.311
482.386,14.902
482.649,14.495
482.913,14.100
483.177,13.718
483.440,13.356
483.704,13.016
483.967,12.708
484.231,12.413
484.495,12.130
484.759,11.845
485.022,11.561
485.286,11.284
485.550,11.008
485.814,10.728
486.078,10.457
486.342,10.212
486.606,10.001
486.869,9.796
487.133,9.598
487.397,9.399
487.662,9.201
487.926,8.992
488.190,8.786
488.454,8.569
488.718,8.360
488.982,8.144
489.246,7.943
489.511,7.738
489.775,7.545
490.039,7.355
490.304,7.175
490.568,6.989
490.832,6.816
491.097,6.650
491.361,6.498
491.626,6.337
491.890,6.179
492.155,6.012
492.419,5.863
492.684,5.701
492.949,5.541
493.213,5.378
493.478,5.235
493.743,5.094
494.008,4.945
494.272,4.788
494.537,4.652
494.802,4.529
495.067,4.426
495.332,4.315
495.597,4.213
495.862,4.102
496.127,4.003
496.392,3.895
496.657,3.793
496.922,3.685
497.187,3.589
497.452,3.507
497.718,3.446
497.983,3.380
498.248,3.312
498.513,3.231
498.779,3.174
499.044,3.111
499.310,3.041
499.575,2.952
499.841,2.879
500.106,2.824
500.372,2.776
500.637,2.730
500.903,2.694
501.168,2.656
501.434,2.609
501.700,2.548
501.966,2.498
502.231,2.452
502.497,2.416
502.763,2.376
503.029,2.343
503.295,2.309
503.561,2.280
503.827,2.258
504.093,2.238
504.359,2.219
504.625,2.199
504.891,2.171
505.157,2.149
505.423,2.118
505.690,2.086
505.956,2.054
506.222,2.035
506.489,2.033
506.755,2.036
507.021,2.035
507.288,2.029
507.554,2.012
507.821,1.993
508.087,1.973
508.354,1.968
508.621,1.959
508.887,1.943
509.154,1.920
509.421,1.899
509.687,1.879
509.954,1.857
510.221,1.841
510.488,1.839
510.755,1.845
511.022,1.849
511.289,1.833
511.556,1.813
511.823,1.793
512.090,1.792
512.357,1.786
512.624,1.779
512.891,1.766
513.159,1.752
513.426,1.733
513.693,1.716
513.960,1.705
514.228,1.701
514.495,1.699
514.763,1.696
515.030,1.687
515.298,1.673
515.565,1.665
515.833,1.663
516.100,1.666
516.368,1.663
516.636,1.655
516.904,1.652
517.171,1.644
517.439,1.637
517.707,1.626
517.975,1.622
518.243,1.621
518.511,1.618
518.779,1.601
519.047,1.593
519.315,1.589
519.583,1.588
519.851,1.575
520.119,1.565
520.387,1.565
520.656,1.569
520.924,1.571
521.192,1.572
521.461,1.577
521.729,1.586
521.997,1.592
522.266,1.591
522.534,1.584
522.803,1.580
523.071,1.570
523.340,1.556
523.609,1.537
523.877,1.527
524.146,1.523
524.415,1.525
524.684,1.527
524.952,1.524
525.221,1.520
525.490,1.528
525.759,1.538
526.028,1.541
526.297,1.524
526.566,1.509
526.835,1.500
527.104,1.502
527.373,1.505
527.642,1.504
527.912,1.495
528.181,1.487
528.450,1.485
528.719,1.491
528.989,1.506
529.258,1.519
529.528,1.518
529.797,1.503
530.067,1.492
530.336,1.485
530.606,1.481
530.875,1.470
531.145,1.465
531.414,1.467
531.684,1.481
531.954,1.490
532.224,1.486
532.493,1.468
532.763,1.454
533.033,1.452
533.303,1.460
533.573,1.468
533.843,1.462
534.113,1.454
534.383,1.443
534.653,1.446
534.923,1.451
535.193,1.457
535.463,1.467
535.733,1.475
536.004,1.487
536.274,1.490
536.544,1.482
536.814,1.469
537.085,1.456
537.355,1.459
537.626,1.471
537.896,1.481
538.166,1.483
538.437,1.479
538.707,1.476
538.978,1.481
539.249,1.494
539.519,1.498
539.790,1.489
540.061,1.478
540.331,1.486
540.602,1.506
540.873,1.516
541.144,1.516
541.414,1.504
541.685,1.497
541.956,1.488
542.227,1.484
542.498,1.476
542.769,1.472
543.040,1.477
543.311,1.490
543.582,1.504
543.853,1.511
544.124,1.516
544.396,1.521
544.667,1.523
544.938,1.517
545.209,1.490
545.480,1.469
545.752,1.461
546.023,1.472
546.294,1.473
546.566,1.468
546.837,1.457
547.109,1.450
547.380,1.442
547.652,1.436
547.923,1.435
548.195,1.443
548.466,1.459
548.738,1.476
549.009,1.478
549.281,1.469
549.553,1.449
549.824,1.427
550.096,1.412
550.368,1.409
550.640,1.413
550.911,1.423
551.183,1.439
551.455,1.463
551.727,1.477
551.999,1.473
552.271,1.455
552.543,1.441
552.815,1.437
553.087,1.447
553.359,1.457
553.631,1.464
553.903,1.459
554.175,1.459
554.447,1.460
554.719,1.462
554.991,1.462
555.263,1.462
555.535,1.460
555.808,1.454
556.080,1.444
556.352,1.437
556.624,1.431
556.897,1.424
557.169,1.417
557.441,1.414
557.714,1.412
557.986,1.410
558.258,1.407
558.531,1.412
558.803,1.423
559.076,1.435
559.348,1.434
559.621,1.425
559.893,1.422
560.166,1.422
560.438,1.422
560.711,1.413
560.983,1.406
561.256,1.405
561.528,1.412
561.801,1.424
562.074,1.434
562.346,1.446
562.619,1.454
562.892,1.454
563.164,1.444
563.437,1.438
563.710,1.434
563.983,1.426
564.255,1.415
564.528,1.417
564.801,1.429
565.074,1.436
565.346,1.426
565.619,1.419
565.892,1.422
566.165,1.424
566.438,1.412
566.711,1.398
566.984,1.394
567.257,1.396
567.529,1.405
567.802,1.419
568.075,1.434
568.348,1.435
568.621,1.430
568.894,1.423
569.167,1.422
569.440,1.414
569.713,1.403
569.986,1.397
570.259,1.393
570.532,1.403
570.805,1.410
571.078,1.417
571.351,1.423
571.625,1.424
571.898,1.419
572.171,1.405
572.444,1.396
572.717,1.402
572.990,1.416
573.263,1.419
573.536,1.410
573.809,1.396
574.083,1.389
574.356,1.395
574.629,1.408
574.902,1.418
575.175,1.416
575.448,1.404
575.721,1.395
575.995,1.391
576.268,1.391
576.541,1.398
576.814,1.406
577.087,1.414
577.361,1.416
577.634,1.414
577.907,1.406
578.180,1.395
578.453,1.387
578.727,1.391
579.000,1.397
579.273,1.404
579.546,1.415
579.820,1.430
580.093,1.435
580.366,1.425
580.639,1.408
580.913,1.398
581.186,1.396
581.459,1.397
581.732,1.390
582.005,1.385
582.279,1.378
582.552,1.383
582.825,1.388
583.098,1.395
583.372,1.399
583.645,1.402
583.918,1.406
584.191,1.405
584.464,1.402
584.738,1.398
585.011,1.396
585.284,1.393
585.557,1.390
585.831,1.393
586.104,1.407
586.377,1.428
586.650,1.437
586.923,1.435
587.196,1.424
587.470,1.412
587.743,1.402
588.016,1.392
588.289,1.393
588.562,1.404
588.835,1.412
589.109,1.409
589.382,1.398
589.655,1.389
589.928,1.384
590.201,1.381
590.474,1.387
590.747,1.401
591.020,1.414
591.293,1.422
591.567,1.424
591.840,1.416
592.113,1.404
592.386,1.390
592.659,1.382
592.932,1.381
593.205,1.388
593.478,1.392
593.751,1.388
594.024,1.383
594.297,1.378
594.570,1.378
594.843,1.384
595.116,1.392
595.389,1.397
595.662,1.397
595.934,1.402
596.207,1.412
596.480,1.422
596.753,1.428
597.026,1.424
597.299,1.418
597.572,1.411
597.844,1.403
598.117,1.391
598.390,1.379
598.663,1.372
598.936,1.375
599.208,1.384
599.481,1.396
599.754,1.400
600.026,1.390
600.299,1.376
600.572,1.366
600.844,1.364
601.117,1.360
601.390,1.360
601.662,1.363
601.935,1.366
602.207,1.371
602.480,1.377
602.752,1.377
603.025,1.367
603.297,1.360
603.570,1.367
603.842,1.381
604.115,1.394
604.387,1.402
604.660,1.399
604.932,1.393
605.204,1.390
605.477,1.399
605.749,1.414
606.021,1.427
606.294,1.434
606.566,1.426
606.838,1.421
607.110,1.418
607.383,1.424
607.655,1.429
607.927,1.435
608.199,1.440
608.471,1.443
608.743,1.439
609.015,1.431
609.287,1.424
609.559,1.423
609.831,1.425
610.103,1.424
610.375,1.416
610.647,1.406
610.919,1.397
611.191,1.395
611.463,1.401
611.735,1.408
612.007,1.406
612.278,1.398
612.550,1.393
612.822,1.399
613.094,1.406
613.365,1.410
613.637,1.414
613.909,1.416
614.180,1.419
614.452,1.413
614.723,1.405
614.995,1.396
615.266,1.394
615.538,1.404
615.809,1.413
616.081,1.410
616.352,1.396
616.623,1.384
616.895,1.381
617.166,1.379
617.437,1.378
617.709,1.379
617.980,1.385
618.251,1.394
618.522,1.400
618.793,1.413
619.065,1.428
619.336,1.425
619.607,1.410
619.878,1.399
620.149,1.407
620.420,1.412
620.691,1.409
620.962,1.408
621.232,1.412
621.503,1.407
621.774,1.396
622.045,1.388
622.316,1.397
622.586,1.410
622.857,1.419
623.128,1.420
623.398,1.416
623.669,1.407
623.940,1.394
624.210,1.382
624.481,1.385
624.751,1.394
625.021,1.400
625.292,1.395
625.562,1.387
625.833,1.383
626.103,1.378
626.373,1.373
626.643,1.371
626.914,1.374
627.184,1.382
627.454,1.387
627.724,1.388
627.994,1.384
628.264,1.381
628.534,1.373
628.804,1.369
629.074,1.373
629.344,1.385
629.614,1.389
629.884,1.379
630.154,1.366
630.424,1.355
630.693,1.346
630.963,1.335
631.233,1.324
631.502,1.325
631.772,1.340
632.041,1.360
632.311,1.372
632.581,1.375
632.850,1.372
633.119,1.362
633.389,1.351
633.658,1.346
633.928,1.352
634.197,1.363
634.466,1.378
634.735,1.389
635.004,1.389
635.274,1.384
635.543,1.375
635.812,1.370
636.081,1.367
636.350,1.368
636.619,1.369
636.888,1.370
637.157,1.372
637.426,1.379
637.694,1.379
637.963,1.374
638.232,1.369
638.501,1.366
638.769,1.368
639.038,1.372
639.307,1.384
639.575,1.394
639.844,1.388
640.112,1.374
640.381,1.356
640.649,1.351
640.917,1.353
641.186,1.357
641.454,1.365
641.722,1.367
641.991,1.368
642.259,1.357
642.527,1.350
642.795,1.349
643.063,1.348
643.331,1.346
643.599,1.346
643.867,1.356
644.135,1.364
644.403,1.373
644.671,1.376
644.939,1.383
645.206,1.384
645.474,1.385
645.742,1.375
646.009,1.360
646.277,1.351
646.545,1.351
646.812,1.368
647.080,1.386
647.347,1.400
647.615,1.394
647.882,1.374
648.149,1.356
648.417,1.349
648.684,1.357
648.951,1.371
649.219,1.382
649.486,1.382
649.753,1.374
650.020,1.363
650.287,1.355
650.554,1.352
650.821,1.354
651.088,1.357
651.355,1.366
651.622,1.370
651.889,1.370
652.155,1.363
652.422,1.363
652.689,1.370
652.956,1.376
653.222,1.385
653.489,1.401
653.755,1.413
654.022,1.408
654.288,1.387
654.555,1.373
654.821,1.374
655.088,1.382
655.354,1.385
655.620,1.391
655.887,1.394
656.153,1.397
656.419,1.397
656.685,1.397
656.951,1.396
657.217,1.391
657.483,1.381
657.749,1.368
658.015,1.364
658.281,1.364
658.547,1.361
658.813,1.355
659.079,1.349
659.345,1.346
659.610,1.346
659.876,1.347
660.142,1.351
660.407,1.356
660.673,1.364
660.939,1.368
661.204,1.362
661.470,1.354
661.735,1.351
662.000,1.356
662.266,1.357
662.531,1.354
662.796,1.351
663.062,1.350
663.327,1.347
663.592,1.346
663.857,1.347
664.122,1.351
664.388,1.352
664.653,1.356
664.918,1.361
665.183,1.364
665.448,1.367
665.712,1.372
665.977,1.381
666.242,1.380
666.507,1.364
666.772,1.346
667.037,1.335
667.301,1.340
667.566,1.349
667.831,1.356
668.095,1.360
668.360,1.361
668.624,1.356
668.889,1.359
669.153,1.355
669.418,1.356
669.682,1.352
669.946,1.357
670.211,1.371
670.475,1.384
670.739,1.394
671.004,1.402
671.268,1.423
671.532,1.448
671.796,1.438
672.060,1.414
672.324,1.391
672.588,1.402
672.852,1.420
673.116,1.461
673.380,1.491
673.644,1.467
673.908,1.412
674.172,1.368
674.436,1.372
674.700,1.378
674.963,1.382
675.227,1.382
675.491,1.375
675.754,1.366
676.018,1.362
676.282,1.369
676.545,1.373
676.809,1.364
677.072,1.351
677.336,1.340
677.599,1.342
677.863,1.344
678.126,1.350
678.389,1.361
678.653,1.373
678.916,1.376
679.179,1.364
679.442,1.357
679.706,1.358
679.969,1.364
680.232,1.373
680.495,1.385
680.758,1.396
681.021,1.394
681.284,1.379
681.547,1.366
681.810,1.366
682.073,1.380
682.336,1.391
682.599,1.392
682.862,1.386
683.125,1.384
683.388,1.387
683.651,1.389
683.913,1.385
684.176,1.372
684.439,1.354
684.702,1.339
684.964,1.333
685.227,1.336
685.490,1.347
685.752,1.365
686.015,1.374
686.277,1.372
686.540,1.363
686.802,1.355
687.065,1.355
687.327,1.358
687.590,1.364
687.852,1.360
688.115,1.348
688.377,1.338
688.639,1.335
688.902,1.337
689.164,1.342
689.426,1.356
689.689,1.370
689.951,1.376
690.213,1.373
690.475,1.366
690.737,1.360
691.000,1.353
691.262,1.349
691.524,1.354
691.786,1.366
692.048,1.379
692.310,1.376
692.572,1.360
692.834,1.343
693.096,1.340
693.358,1.352
693.620,1.368
693.882,1.383
694.144,1.391
694.406,1.388
694.668,1.379
694.930,1.368
695.192,1.364
695.453,1.363
695.715,1.364
695.977,1.361
696.239,1.353
696.501,1.351
696.762,1.357
697.024,1.362
697.286,1.357
697.548,1.350
697.809,1.349
698.071,1.348
698.333,1.346
698.594,1.346
698.856,1.353
699.118,1.360
699.379,1.367
699.641,1.374
699.902,1.381
700.164,1.382
700.426,1.378
700.687,1.369
700.949,1.368
701.210,1.367
701.472,1.363
701.733,1.355
701.995,1.352
702.256,1.354
702.518,1.354
702.779,1.353
703.041,1.362
703.302,1.376
703.563,1.377
703.825,1.364
704.086,1.352
704.348,1.350
704.609,1.358
704.871,1.373
705.132,1.386
705.393,1.381
705.655,1.371
705.916,1.365
706.177,1.367
706.439,1.366
706.700,1.364
706.961,1.364
707.223,1.363
707.484,1.349
707.745,1.334
708.007,1.318
708.268,1.310
708.529,1.300
708.790,1.286
709.052,1.273
709.313,1.271
709.574,1.277
709.835,1.284
710.097,1.277
710.358,1.261
710.619,1.247
710.881,1.240
711.142,1.237
711.403,1.235
711.664,1.234
711.926,1.230
712.187,1.234
712.448,1.240
712.709,1.254
712.970,1.266
713.232,1.273
713.493,1.276
713.754,1.275
714.015,1.276
714.277,1.280
714.538,1.288
714.799,1.299
715.060,1.304
715.322,1.301
715.583,1.290
715.844,1.276
716.105,1.266
716.367,1.259
716.628,1.261
716.889,1.261
717.150,1.255
717.411,1.247
717.673,1.251
717.934,1.261
718.195,1.268
718.457,1.262
718.718,1.249
718.979,1.242
719.240,1.247
719.502,1.258
719.763,1.268
720.024,1.270
720.286,1.269
720.547,1.260
720.808,1.253
721.069,1.246
721.331,1.251
721.592,1.262
721.853,1.270
722.115,1.272
722.376,1.272
722.638,1.271
722.899,1.270
723.160,1.261
723.422,1.254
723.683,1.250
723.944,1.255
724.206,1.256
724.467,1.252
724.729,1.246
724.990,1.252
725.252,1.260
725.513,1.255
725.775,1.238
726.036,1.226
726.298,1.228
726.559,1.238
726.821,1.245
727.082,1.248
727.344,1.247
727.605,1.247
727.867,1.244
728.128,1.243
728.390,1.245
728.652,1.255
728.913,1.268
729.175,1.275
729.436,1.275
729.698,1.273
729.960,1.269
730.221,1.262
730.483,1.245
730.745,1.240
731.007,1.239
731.268,1.243
731.530,1.250
731.792,1.256
732.054,1.264
732.315,1.268
732.577,1.270
732.839,1.265
733.101,1.257
733.363,1.251
733.625,1.251
733.887,1.256
734.149,1.259
734.411,1.266
734.673,1.270
734.935,1.268
735.197,1.263
735.459,1.262
735.721,1.264
735.983,1.257
736.245,1.243
736.507,1.238
736.769,1.244
737.031,1.253
737.293,1.252
737.555,1.248
737.818,1.242
738.080,1.240
738.342,1.240
738.604,1.242
738.867,1.244
739.129,1.244
739.391,1.243
739.654,1.243
739.916,1.244
740.178,1.249
740.441,1.259
740.703,1.263
740.966,1.259
741.228,1.250
741.491,1.247
741.753,1.251
742.016,1.251
742.278,1.252
742.541,1.252
742.804,1.258
743.066,1.268
743.329,1.271
743.592,1.266
743.854,1.262
744.117,1.265
744.380,1.272
744.643,1.268
744.905,1.256
745.168,1.245
745.431,1.241
745.694,1.238
745.957,1.235
746.220,1.231
746.483,1.229
746.746,1.232
747.009,1.246
