Wavelength (nm),Intensity Source #86,,C:/Users/Brend/Desktop/LED Spectras v2/Spectrometer Data.sp,,,Source #86,
379.792,2.004,,2018-06-14 09:47:22,,Integration Time,154 ms,
380.000,2.002,,Analyze Light,,Number of Scans to Average,25,
380.209,2.001,,,,Smoothing,1,
380.418,2.013
380.627,2.032
380.837,2.049
381.048,2.057
381.259,2.057
381.471,2.060
381.683,2.070
381.896,2.086
382.110,2.097
382.324,2.111
382.538,2.126
382.753,2.139
382.969,2.137
383.185,2.135
383.402,2.135
383.619,2.144
383.837,2.156
384.055,2.175
384.274,2.191
384.493,2.203
384.712,2.210
384.932,2.220
385.153,2.233
385.374,2.250
385.596,2.265
385.818,2.282
386.040,2.298
386.263,2.315
386.487,2.323
386.710,2.327
386.935,2.322
387.159,2.325
387.385,2.321
387.610,2.322
387.836,2.325
388.063,2.338
388.289,2.350
388.517,2.357
388.744,2.357
388.972,2.371
389.201,2.379
389.430,2.389
389.659,2.397
389.889,2.413
390.119,2.425
390.349,2.435
390.580,2.448
390.811,2.464
391.042,2.475
391.274,2.484
391.507,2.488
391.739,2.488
391.972,2.482
392.205,2.490
392.439,2.510
392.673,2.536
392.907,2.555
393.142,2.573
393.377,2.587
393.612,2.603
393.848,2.608
394.084,2.616
394.320,2.619
394.557,2.634
394.794,2.644
395.031,2.663
395.269,2.680
395.507,2.702
395.745,2.710
395.983,2.719
396.222,2.730
396.461,2.757
396.700,2.779
396.940,2.793
397.180,2.795
397.420,2.791
397.660,2.789
397.901,2.794
398.142,2.800
398.383,2.801
398.625,2.799
398.866,2.812
399.108,2.839
399.351,2.877
399.593,2.890
399.836,2.895
400.079,2.883
400.322,2.883
400.566,2.878
400.809,2.881
401.053,2.885
401.298,2.899
401.542,2.916
401.787,2.938
402.031,2.956
402.277,2.973
402.522,2.979
402.767,2.988
403.013,2.985
403.259,2.992
403.505,2.996
403.752,3.012
403.998,3.020
404.245,3.045
404.492,3.062
404.739,3.081
404.986,3.092
405.234,3.108
405.482,3.121
405.730,3.129
405.978,3.136
406.226,3.140
406.475,3.134
406.723,3.132
406.972,3.144
407.221,3.171
407.470,3.189
407.720,3.203
407.969,3.202
408.219,3.216
408.469,3.228
408.719,3.244
408.969,3.246
409.219,3.254
409.470,3.264
409.720,3.284
409.971,3.299
410.222,3.318
410.473,3.319
410.724,3.320
410.976,3.321
411.227,3.339
411.479,3.354
411.731,3.368
411.983,3.366
412.235,3.370
412.487,3.363
412.740,3.371
412.992,3.375
413.245,3.393
413.497,3.403
413.750,3.411
414.003,3.404
414.257,3.400
414.510,3.393
414.763,3.404
415.017,3.414
415.270,3.432
415.524,3.434
415.778,3.432
416.032,3.425
416.286,3.435
416.540,3.443
416.794,3.458
417.049,3.459
417.303,3.463
417.558,3.459
417.812,3.457
418.067,3.455
418.322,3.458
418.577,3.456
418.832,3.453
419.088,3.440
419.343,3.442
419.598,3.438
419.854,3.446
420.109,3.447
420.365,3.467
420.621,3.473
420.876,3.484
421.132,3.481
421.388,3.484
421.645,3.481
421.901,3.486
422.157,3.489
422.413,3.499
422.670,3.502
422.926,3.515
423.183,3.516
423.439,3.533
423.696,3.548
423.953,3.591
424.210,3.628
424.467,3.656
424.724,3.664
424.981,3.667
425.238,3.682
425.495,3.721
425.753,3.762
426.010,3.805
426.267,3.839
426.525,3.887
426.782,3.929
427.040,3.975
427.298,4.025
427.555,4.099
427.813,4.169
428.071,4.242
428.329,4.306
428.587,4.379
428.845,4.450
429.103,4.538
429.361,4.633
429.619,4.744
429.878,4.849
430.136,4.967
430.394,5.080
430.653,5.216
430.911,5.356
431.170,5.507
431.428,5.639
431.687,5.772
431.946,5.904
432.204,6.063
432.463,6.238
432.722,6.432
432.981,6.625
433.240,6.835
433.499,7.048
433.758,7.279
434.017,7.496
434.276,7.727
434.535,7.957
434.794,8.216
435.053,8.478
435.312,8.755
435.572,9.032
435.831,9.337
436.090,9.652
436.350,9.987
436.609,10.326
436.869,10.684
437.128,11.045
437.388,11.421
437.647,11.801
437.907,12.214
438.166,12.628
438.426,13.054
438.686,13.482
438.946,13.950
439.205,14.438
439.465,14.961
439.725,15.506
439.985,16.077
440.245,16.657
440.505,17.253
440.765,17.860
441.025,18.483
441.285,19.116
441.545,19.799
441.805,20.510
442.065,21.262
442.325,22.023
442.585,22.837
442.846,23.683
443.106,24.611
443.366,25.581
443.626,26.602
443.887,27.644
444.147,28.729
444.407,29.855
444.668,31.034
444.928,32.267
445.189,33.581
445.449,34.943
445.710,36.352
445.970,37.810
446.231,39.350
446.491,40.973
446.752,42.664
447.012,44.408
447.273,46.209
447.534,48.054
447.794,49.949
448.055,51.888
448.316,53.893
448.577,55.975
448.837,58.112
449.098,60.292
449.359,62.472
449.620,64.644
449.881,66.802
450.142,68.960
450.403,71.139
450.664,73.335
450.924,75.525
451.185,77.692
451.446,79.790
451.707,81.770
451.969,83.547
452.230,85.059
452.491,86.304
452.752,87.332
453.013,88.215
453.274,88.999
453.535,89.687
453.796,90.287
454.058,90.793
454.319,91.218
454.580,91.556
454.841,91.819
455.103,92.016
455.364,92.160
455.625,92.252
455.887,92.293
456.148,92.282
456.409,92.213
456.671,92.096
456.932,91.930
457.194,91.720
457.455,91.458
457.716,91.140
457.978,90.754
458.239,90.307
458.501,89.799
458.763,89.222
459.024,88.563
459.286,87.803
459.547,86.951
459.809,85.949
460.071,84.759
460.332,83.352
460.594,81.771
460.856,80.087
461.117,78.358
461.379,76.641
461.641,74.946
461.903,73.283
462.164,71.640
462.426,70.026
462.688,68.447
462.950,66.909
463.212,65.422
463.474,63.967
463.736,62.563
463.998,61.232
464.260,59.986
464.522,58.809
464.784,57.677
465.046,56.568
465.308,55.514
465.570,54.516
465.832,53.582
466.094,52.692
466.356,51.825
466.618,50.979
466.880,50.115
467.142,49.250
467.405,48.414
467.667,47.645
467.929,46.900
468.191,46.162
468.454,45.396
468.716,44.627
468.978,43.827
469.241,43.019
469.503,42.221
469.765,41.462
470.028,40.716
470.290,39.975
470.552,39.234
470.815,38.513
471.077,37.779
471.340,37.037
471.602,36.278
471.865,35.537
472.128,34.784
472.390,34.042
472.653,33.285
472.915,32.549
473.178,31.806
473.441,31.073
473.703,30.321
473.966,29.573
474.229,28.826
474.492,28.100
474.755,27.381
475.017,26.681
475.280,25.999
475.543,25.331
475.806,24.664
476.069,23.993
476.332,23.330
476.595,22.693
476.858,22.072
477.121,21.475
477.384,20.892
477.647,20.341
477.910,19.813
478.173,19.303
478.436,18.799
478.699,18.310
478.962,17.836
479.226,17.392
479.489,16.955
479.752,16.536
480.015,16.123
480.279,15.725
480.542,15.334
480.805,14.960
481.069,14.586
481.332,14.223
481.595,13.878
481.859,13.575
482.122,13.279
482.386,12.980
482.649,12.666
482.913,12.359
483.177,12.059
483.440,11.771
483.704,11.496
483.967,11.251
484.231,11.000
484.495,10.760
484.759,10.510
485.022,10.274
485.286,10.033
485.550,9.791
485.814,9.533
486.078,9.287
486.342,9.056
486.606,8.858
486.869,8.660
487.133,8.465
487.397,8.266
487.662,8.075
487.926,7.875
488.190,7.679
488.454,7.473
488.718,7.278
488.982,7.078
489.246,6.893
489.511,6.707
489.775,6.533
490.039,6.355
490.304,6.180
490.568,5.994
490.832,5.825
491.097,5.671
491.361,5.546
491.626,5.413
491.890,5.281
492.155,5.137
492.419,5.010
492.684,4.878
492.949,4.752
493.213,4.622
493.478,4.510
493.743,4.396
494.008,4.271
494.272,4.135
494.537,4.022
494.802,3.927
495.067,3.855
495.332,3.780
495.597,3.707
495.862,3.615
496.127,3.527
496.392,3.435
496.657,3.352
496.922,3.272
497.187,3.207
497.452,3.152
497.718,3.106
497.983,3.051
498.248,2.993
498.513,2.929
498.779,2.884
499.044,2.844
499.310,2.797
499.575,2.734
499.841,2.679
500.106,2.634
500.372,2.593
500.637,2.552
500.903,2.525
501.168,2.498
501.434,2.463
501.700,2.414
501.966,2.375
502.231,2.338
502.497,2.310
502.763,2.275
503.029,2.246
503.295,2.219
503.561,2.195
503.827,2.174
504.093,2.153
504.359,2.130
504.625,2.110
504.891,2.086
505.157,2.069
505.423,2.043
505.690,2.014
505.956,1.983
506.222,1.965
506.489,1.964
506.755,1.969
507.021,1.968
507.288,1.961
507.554,1.943
507.821,1.923
508.087,1.903
508.354,1.899
508.621,1.891
508.887,1.875
509.154,1.853
509.421,1.837
509.687,1.823
509.954,1.808
510.221,1.790
510.488,1.785
510.755,1.787
511.022,1.792
511.289,1.782
511.556,1.768
511.823,1.752
512.090,1.753
512.357,1.746
512.624,1.740
512.891,1.725
513.159,1.711
513.426,1.697
513.693,1.688
513.960,1.684
514.228,1.681
514.495,1.676
514.763,1.672
515.030,1.664
515.298,1.654
515.565,1.650
515.833,1.650
516.100,1.649
516.368,1.643
516.636,1.635
516.904,1.633
517.171,1.626
517.439,1.622
517.707,1.614
517.975,1.609
518.243,1.607
518.511,1.605
518.779,1.594
519.047,1.589
519.315,1.587
519.583,1.582
519.851,1.569
520.119,1.558
520.387,1.556
520.656,1.554
520.924,1.551
521.192,1.554
521.461,1.559
521.729,1.564
521.997,1.569
522.266,1.570
522.534,1.566
522.803,1.557
523.071,1.547
523.340,1.532
523.609,1.515
523.877,1.503
524.146,1.499
524.415,1.502
524.684,1.509
524.952,1.508
525.221,1.503
525.490,1.504
525.759,1.515
526.028,1.521
526.297,1.507
526.566,1.492
526.835,1.482
527.104,1.485
527.373,1.485
527.642,1.482
527.912,1.473
528.181,1.468
528.450,1.468
528.719,1.474
528.989,1.488
529.258,1.502
529.528,1.505
529.797,1.496
530.067,1.491
530.336,1.487
530.606,1.485
530.875,1.476
531.145,1.472
531.414,1.473
531.684,1.475
531.954,1.472
532.224,1.462
532.493,1.445
532.763,1.436
533.033,1.433
533.303,1.439
533.573,1.444
533.843,1.442
534.113,1.439
534.383,1.431
534.653,1.432
534.923,1.438
535.193,1.449
535.463,1.459
535.733,1.466
536.004,1.472
536.274,1.476
536.544,1.468
536.814,1.454
537.085,1.440
537.355,1.444
537.626,1.460
537.896,1.472
538.166,1.475
538.437,1.470
538.707,1.467
538.978,1.467
539.249,1.473
539.519,1.475
539.790,1.465
540.061,1.453
540.331,1.458
540.602,1.475
540.873,1.489
541.144,1.489
541.414,1.482
541.685,1.475
541.956,1.471
542.227,1.466
542.498,1.459
542.769,1.454
543.040,1.459
543.311,1.474
543.582,1.488
543.853,1.496
544.124,1.503
544.396,1.510
544.667,1.514
544.938,1.505
545.209,1.479
545.480,1.458
545.752,1.448
546.023,1.455
546.294,1.453
546.566,1.443
546.837,1.430
547.109,1.423
547.380,1.421
547.652,1.416
547.923,1.414
548.195,1.420
548.466,1.438
548.738,1.456
549.009,1.459
549.281,1.448
549.553,1.430
549.824,1.412
550.096,1.402
550.368,1.400
550.640,1.407
550.911,1.416
551.183,1.432
551.455,1.453
551.727,1.467
551.999,1.461
552.271,1.445
552.543,1.431
552.815,1.424
553.087,1.425
553.359,1.428
553.631,1.433
553.903,1.435
554.175,1.439
554.447,1.447
554.719,1.449
554.991,1.446
555.263,1.439
555.535,1.430
555.808,1.421
556.080,1.410
556.352,1.404
556.624,1.404
556.897,1.404
557.169,1.405
557.441,1.402
557.714,1.400
557.986,1.399
558.258,1.399
558.531,1.407
558.803,1.413
559.076,1.420
559.348,1.415
559.621,1.408
559.893,1.408
560.166,1.410
560.438,1.408
560.711,1.398
560.983,1.392
561.256,1.396
561.528,1.408
561.801,1.419
562.074,1.425
562.346,1.429
562.619,1.433
562.892,1.432
563.164,1.428
563.437,1.428
563.710,1.429
563.983,1.418
564.255,1.401
564.528,1.398
564.801,1.411
565.074,1.422
565.346,1.417
565.619,1.412
565.892,1.413
566.165,1.412
566.438,1.400
566.711,1.388
566.984,1.384
567.257,1.389
567.529,1.399
567.802,1.415
568.075,1.423
568.348,1.417
568.621,1.410
568.894,1.404
569.167,1.404
569.440,1.396
569.713,1.383
569.986,1.375
570.259,1.374
570.532,1.383
570.805,1.393
571.078,1.399
571.351,1.406
571.625,1.408
571.898,1.402
572.171,1.389
572.444,1.375
572.717,1.378
572.990,1.390
573.263,1.396
573.536,1.390
573.809,1.377
574.083,1.370
574.356,1.374
574.629,1.387
574.902,1.394
575.175,1.392
575.448,1.379
575.721,1.370
575.995,1.368
576.268,1.374
576.541,1.385
576.814,1.397
577.087,1.406
577.361,1.408
577.634,1.399
577.907,1.384
578.180,1.370
578.453,1.365
578.727,1.372
579.000,1.382
579.273,1.393
579.546,1.407
579.820,1.417
580.093,1.416
580.366,1.402
580.639,1.385
580.913,1.376
581.186,1.373
581.459,1.374
581.732,1.367
582.005,1.362
582.279,1.357
582.552,1.361
582.825,1.366
583.098,1.373
583.372,1.378
583.645,1.380
583.918,1.381
584.191,1.378
584.464,1.376
584.738,1.376
585.011,1.381
585.284,1.382
585.557,1.377
585.831,1.377
586.104,1.386
586.377,1.403
586.650,1.412
586.923,1.414
587.196,1.409
587.470,1.399
587.743,1.390
588.016,1.381
588.289,1.382
588.562,1.388
588.835,1.391
589.109,1.384
589.382,1.373
589.655,1.366
589.928,1.364
590.201,1.365
590.474,1.374
590.747,1.386
591.020,1.396
591.293,1.396
591.567,1.394
591.840,1.391
592.113,1.385
592.386,1.376
592.659,1.365
592.932,1.365
593.205,1.375
593.478,1.383
593.751,1.381
594.024,1.373
594.297,1.363
594.570,1.360
594.843,1.366
595.116,1.378
595.389,1.383
595.662,1.378
595.934,1.376
596.207,1.381
596.480,1.392
596.753,1.403
597.026,1.406
597.299,1.406
597.572,1.401
597.844,1.394
598.117,1.381
598.390,1.370
598.663,1.365
598.936,1.368
599.208,1.374
599.481,1.382
599.754,1.389
600.026,1.380
600.299,1.367
600.572,1.353
600.844,1.350
601.117,1.343
601.390,1.340
601.662,1.337
601.935,1.336
602.207,1.338
602.480,1.345
602.752,1.351
603.025,1.350
603.297,1.348
603.570,1.358
603.842,1.375
604.115,1.391
604.387,1.397
604.660,1.391
604.932,1.384
605.204,1.382
605.477,1.390
605.749,1.402
606.021,1.411
606.294,1.413
606.566,1.405
606.838,1.398
607.110,1.397
607.383,1.405
607.655,1.410
607.927,1.413
608.199,1.417
608.471,1.418
608.743,1.415
609.015,1.410
609.287,1.408
609.559,1.410
609.831,1.413
610.103,1.413
610.375,1.411
610.647,1.403
610.919,1.392
611.191,1.387
611.463,1.386
611.735,1.386
612.007,1.382
612.278,1.381
612.550,1.385
612.822,1.392
613.094,1.396
613.365,1.394
613.637,1.393
613.909,1.390
614.180,1.388
614.452,1.382
614.723,1.378
614.995,1.371
615.266,1.371
615.538,1.380
615.809,1.392
616.081,1.390
616.352,1.379
616.623,1.368
616.895,1.363
617.166,1.359
617.437,1.356
617.709,1.357
617.980,1.364
618.251,1.375
618.522,1.386
618.793,1.398
619.065,1.405
619.336,1.398
619.607,1.385
619.878,1.377
620.149,1.384
620.420,1.390
620.691,1.387
620.962,1.389
621.232,1.394
621.503,1.390
621.774,1.380
622.045,1.373
622.316,1.382
622.586,1.396
622.857,1.409
623.128,1.409
623.398,1.401
623.669,1.391
623.940,1.379
624.210,1.368
624.481,1.368
624.751,1.371
625.021,1.373
625.292,1.365
625.562,1.364
625.833,1.362
626.103,1.359
626.373,1.353
626.643,1.352
626.914,1.354
627.184,1.359
627.454,1.360
627.724,1.360
627.994,1.357
628.264,1.355
628.534,1.349
628.804,1.345
629.074,1.351
629.344,1.363
629.614,1.366
629.884,1.356
630.154,1.343
630.424,1.335
630.693,1.325
630.963,1.313
631.233,1.305
631.502,1.309
631.772,1.326
632.041,1.342
632.311,1.351
632.581,1.358
632.850,1.359
633.119,1.352
633.389,1.337
633.658,1.327
633.928,1.334
634.197,1.348
634.466,1.361
634.735,1.364
635.004,1.358
635.274,1.351
635.543,1.348
635.812,1.348
636.081,1.351
636.350,1.353
636.619,1.358
636.888,1.361
637.157,1.365
637.426,1.369
637.694,1.373
637.963,1.373
638.232,1.366
638.501,1.354
638.769,1.349
639.038,1.354
639.307,1.368
639.575,1.378
639.844,1.372
640.112,1.357
640.381,1.339
640.649,1.334
640.917,1.336
641.186,1.342
641.454,1.349
641.722,1.352
641.991,1.354
642.259,1.346
642.527,1.338
642.795,1.332
643.063,1.325
643.331,1.320
643.599,1.320
643.867,1.333
644.135,1.343
644.403,1.352
644.671,1.355
644.939,1.359
645.206,1.361
645.474,1.363
645.742,1.357
646.009,1.339
646.277,1.328
646.545,1.330
646.812,1.348
647.080,1.367
647.347,1.377
647.615,1.373
647.882,1.357
648.149,1.339
648.417,1.330
648.684,1.335
648.951,1.351
649.219,1.363
649.486,1.365
649.753,1.359
650.020,1.352
650.287,1.347
650.554,1.341
650.821,1.336
651.088,1.334
651.355,1.339
651.622,1.342
651.889,1.345
652.155,1.340
652.422,1.342
652.689,1.348
652.956,1.354
653.222,1.363
653.489,1.378
653.755,1.391
654.022,1.386
654.288,1.366
654.555,1.351
654.821,1.350
655.088,1.358
655.354,1.365
655.620,1.373
655.887,1.375
656.153,1.377
656.419,1.375
656.685,1.371
656.951,1.367
657.217,1.361
657.483,1.356
657.749,1.351
658.015,1.348
658.281,1.346
658.547,1.342
658.813,1.336
659.079,1.331
659.345,1.328
659.610,1.329
659.876,1.333
660.142,1.336
660.407,1.339
660.673,1.342
660.939,1.346
661.204,1.343
661.470,1.337
661.735,1.331
662.000,1.334
662.266,1.335
662.531,1.340
662.796,1.343
663.062,1.344
663.327,1.339
663.592,1.335
663.857,1.334
664.122,1.333
664.388,1.330
664.653,1.332
664.918,1.337
665.183,1.343
665.448,1.348
665.712,1.353
665.977,1.360
666.242,1.361
666.507,1.348
666.772,1.330
667.037,1.319
667.301,1.323
667.566,1.327
667.831,1.333
668.095,1.334
668.360,1.336
668.624,1.334
668.889,1.338
669.153,1.336
669.418,1.335
669.682,1.334
669.946,1.338
670.211,1.347
670.475,1.355
670.739,1.367
671.004,1.381
671.268,1.406
671.532,1.432
671.796,1.428
672.060,1.405
672.324,1.378
672.588,1.378
672.852,1.389
673.116,1.424
673.380,1.455
673.644,1.439
673.908,1.393
674.172,1.349
674.436,1.347
674.700,1.350
674.963,1.354
675.227,1.356
675.491,1.353
675.754,1.347
676.018,1.343
676.282,1.348
676.545,1.349
676.809,1.344
677.072,1.333
677.336,1.325
677.599,1.326
677.863,1.327
678.126,1.331
678.389,1.338
678.653,1.345
678.916,1.345
679.179,1.332
679.442,1.325
679.706,1.329
679.969,1.337
680.232,1.346
680.495,1.355
680.758,1.364
681.021,1.362
681.284,1.350
681.547,1.340
681.810,1.345
682.073,1.360
682.336,1.370
682.599,1.366
682.862,1.356
683.125,1.354
683.388,1.360
683.651,1.362
683.913,1.358
684.176,1.346
684.439,1.332
684.702,1.322
684.964,1.319
685.227,1.326
685.490,1.337
685.752,1.353
686.015,1.359
686.277,1.356
686.540,1.344
686.802,1.333
687.065,1.332
687.327,1.337
687.590,1.340
687.852,1.334
688.115,1.326
688.377,1.324
688.639,1.326
688.902,1.330
689.164,1.337
689.426,1.349
689.689,1.359
689.951,1.358
690.213,1.353
690.475,1.348
690.737,1.344
691.000,1.341
691.262,1.338
691.524,1.342
691.786,1.352
692.048,1.363
692.310,1.361
692.572,1.346
692.834,1.329
693.096,1.323
693.358,1.332
693.620,1.346
693.882,1.359
694.144,1.361
694.406,1.356
694.668,1.350
694.930,1.345
695.192,1.344
695.453,1.345
695.715,1.349
695.977,1.345
696.239,1.338
696.501,1.333
696.762,1.338
697.024,1.340
697.286,1.337
697.548,1.334
697.809,1.333
698.071,1.330
698.333,1.324
698.594,1.323
698.856,1.329
699.118,1.335
699.379,1.338
699.641,1.342
699.902,1.351
700.164,1.356
700.426,1.353
700.687,1.344
700.949,1.340
701.210,1.339
701.472,1.336
701.733,1.328
701.995,1.326
702.256,1.326
702.518,1.325
702.779,1.325
703.041,1.341
703.302,1.359
703.563,1.362
703.825,1.350
704.086,1.338
704.348,1.334
704.609,1.335
704.871,1.344
705.132,1.352
705.393,1.347
705.655,1.340
705.916,1.338
706.177,1.343
706.439,1.344
706.700,1.342
706.961,1.339
707.223,1.332
707.484,1.317
707.745,1.302
708.007,1.288
708.268,1.280
708.529,1.269
708.790,1.255
709.052,1.245
709.313,1.244
709.574,1.249
709.835,1.256
710.097,1.252
710.358,1.241
710.619,1.226
710.881,1.214
711.142,1.206
711.403,1.203
711.664,1.202
711.926,1.199
712.187,1.202
712.448,1.210
712.709,1.223
712.970,1.232
713.232,1.237
713.493,1.241
713.754,1.240
714.015,1.242
714.277,1.245
714.538,1.252
714.799,1.264
715.060,1.272
715.322,1.273
715.583,1.261
715.844,1.249
716.105,1.236
716.367,1.229
716.628,1.225
716.889,1.225
717.150,1.223
717.411,1.216
717.673,1.214
717.934,1.216
718.195,1.219
718.457,1.216
718.718,1.208
718.979,1.203
719.240,1.204
719.502,1.211
719.763,1.219
720.024,1.225
720.286,1.228
720.547,1.220
720.808,1.212
721.069,1.205
721.331,1.211
721.592,1.221
721.853,1.226
722.115,1.229
722.376,1.231
722.638,1.234
722.899,1.231
723.160,1.223
723.422,1.215
723.683,1.214
723.944,1.218
724.206,1.221
724.467,1.219
724.729,1.217
724.990,1.222
725.252,1.228
725.513,1.224
725.775,1.210
726.036,1.200
726.298,1.201
726.559,1.211
726.821,1.212
727.082,1.213
727.344,1.208
727.605,1.207
727.867,1.204
728.128,1.205
728.390,1.207
728.652,1.216
728.913,1.231
729.175,1.241
729.436,1.244
729.698,1.242
729.960,1.238
730.221,1.231
730.483,1.216
730.745,1.211
731.007,1.208
731.268,1.210
731.530,1.212
731.792,1.217
732.054,1.222
732.315,1.223
732.577,1.224
732.839,1.222
733.101,1.218
733.363,1.216
733.625,1.216
733.887,1.219
734.149,1.216
734.411,1.219
734.673,1.221
734.935,1.223
735.197,1.219
735.459,1.218
735.721,1.218
735.983,1.216
736.245,1.206
736.507,1.205
736.769,1.214
737.031,1.226
737.293,1.222
737.555,1.209
737.818,1.198
738.080,1.193
738.342,1.194
738.604,1.195
738.867,1.199
739.129,1.201
739.391,1.202
739.654,1.201
739.916,1.201
740.178,1.205
740.441,1.211
740.703,1.214
740.966,1.211
741.228,1.208
741.491,1.206
741.753,1.206
742.016,1.204
742.278,1.206
742.541,1.210
742.804,1.215
743.066,1.221
743.329,1.222
743.592,1.220
743.854,1.222
744.117,1.228
744.380,1.231
744.643,1.223
744.905,1.213
745.168,1.209
745.431,1.208
745.694,1.206
745.957,1.201
746.220,1.199
746.483,1.199
746.746,1.201
747.009,1.210
