Wavelength (nm),Intensity Source #80,,C:/Users/Brend/Desktop/LED Spectras v2/Spectrometer Data.sp,,,Source #80,
379.792,1.741,,2018-06-14 09:39:09,,Integration Time,109 ms,
380.000,1.739,,Analyze Light,,Number of Scans to Average,25,
380.209,1.741,,,,Smoothing,1,
380.418,1.752
380.627,1.767
380.837,1.783
381.048,1.794
381.259,1.796
381.471,1.794
381.683,1.796
381.896,1.804
382.110,1.811
382.324,1.822
382.538,1.835
382.753,1.841
382.969,1.832
383.185,1.822
383.402,1.822
383.619,1.837
383.837,1.850
384.055,1.867
384.274,1.881
384.493,1.890
384.712,1.894
384.932,1.900
385.153,1.909
385.374,1.916
385.596,1.922
385.818,1.937
386.040,1.952
386.263,1.966
386.487,1.972
386.710,1.975
386.935,1.969
387.159,1.964
387.385,1.958
387.610,1.961
387.836,1.969
388.063,1.984
388.289,1.998
388.517,2.004
388.744,2.006
388.972,2.015
389.201,2.024
389.430,2.031
389.659,2.035
389.889,2.046
390.119,2.056
390.349,2.060
390.580,2.065
390.811,2.072
391.042,2.079
391.274,2.084
391.507,2.087
391.739,2.088
391.972,2.087
392.205,2.090
392.439,2.099
392.673,2.112
392.907,2.126
393.142,2.143
393.377,2.157
393.612,2.168
393.848,2.172
394.084,2.177
394.320,2.182
394.557,2.192
394.794,2.195
395.031,2.204
395.269,2.212
395.507,2.225
395.745,2.231
395.983,2.239
396.222,2.249
396.461,2.268
396.700,2.290
396.940,2.304
397.180,2.308
397.420,2.305
397.660,2.303
397.901,2.303
398.142,2.306
398.383,2.306
398.625,2.307
398.866,2.318
399.108,2.339
399.351,2.367
399.593,2.377
399.836,2.379
400.079,2.370
400.322,2.368
400.566,2.365
400.809,2.365
401.053,2.365
401.298,2.368
401.542,2.374
401.787,2.388
402.031,2.404
402.277,2.419
402.522,2.425
402.767,2.425
403.013,2.420
403.259,2.421
403.505,2.428
403.752,2.439
403.998,2.448
404.245,2.465
404.492,2.482
404.739,2.491
404.986,2.489
405.234,2.491
405.482,2.491
405.730,2.492
405.978,2.490
406.226,2.490
406.475,2.484
406.723,2.484
406.972,2.492
407.221,2.515
407.470,2.530
407.720,2.544
407.969,2.546
408.219,2.556
408.469,2.565
408.719,2.580
408.969,2.584
409.219,2.590
409.470,2.593
409.720,2.605
409.971,2.613
410.222,2.623
410.473,2.626
410.724,2.627
410.976,2.628
411.227,2.638
411.479,2.645
411.731,2.655
411.983,2.659
412.235,2.670
412.487,2.676
412.740,2.686
412.992,2.689
413.245,2.702
413.497,2.710
413.750,2.718
414.003,2.712
414.257,2.709
414.510,2.704
414.763,2.714
415.017,2.721
415.270,2.733
415.524,2.737
415.778,2.743
416.032,2.745
416.286,2.757
416.540,2.760
416.794,2.766
417.049,2.764
417.303,2.771
417.558,2.776
417.812,2.782
418.067,2.785
418.322,2.788
418.577,2.788
418.832,2.786
419.088,2.778
419.343,2.784
419.598,2.784
419.854,2.790
420.109,2.786
420.365,2.795
420.621,2.801
420.876,2.814
421.132,2.820
421.388,2.820
421.645,2.812
421.901,2.810
422.157,2.812
422.413,2.825
422.670,2.833
422.926,2.843
423.183,2.842
423.439,2.853
423.696,2.865
423.953,2.893
424.210,2.914
424.467,2.931
424.724,2.937
424.981,2.940
425.238,2.948
425.495,2.969
425.753,2.993
426.010,3.020
426.267,3.041
426.525,3.077
426.782,3.113
427.040,3.159
427.298,3.200
427.555,3.255
427.813,3.304
428.071,3.358
428.329,3.412
428.587,3.472
428.845,3.527
429.103,3.586
429.361,3.649
429.619,3.723
429.878,3.796
430.136,3.875
430.394,3.956
430.653,4.056
430.911,4.165
431.170,4.281
431.428,4.383
431.687,4.486
431.946,4.595
432.204,4.725
432.463,4.863
432.722,5.009
432.981,5.152
433.240,5.316
433.499,5.485
433.758,5.670
434.017,5.847
434.276,6.035
434.535,6.224
434.794,6.434
435.053,6.656
435.312,6.892
435.572,7.124
435.831,7.370
436.090,7.633
436.350,7.917
436.609,8.207
436.869,8.503
437.128,8.807
437.388,9.129
437.647,9.458
437.907,9.805
438.166,10.153
438.426,10.514
438.686,10.878
438.946,11.264
439.205,11.660
439.465,12.086
439.725,12.534
439.985,13.008
440.245,13.486
440.505,13.976
440.765,14.467
441.025,14.963
441.285,15.474
441.545,16.008
441.805,16.558
442.065,17.129
442.325,17.722
442.585,18.362
442.846,19.015
443.106,19.705
443.366,20.410
443.626,21.146
443.887,21.904
444.147,22.700
444.407,23.520
444.668,24.380
444.928,25.262
445.189,26.200
445.449,27.169
445.710,28.187
445.970,29.238
446.231,30.336
446.491,31.493
446.752,32.714
447.012,33.995
447.273,35.333
447.534,36.715
447.794,38.149
448.055,39.652
448.316,41.252
448.577,42.940
448.837,44.709
449.098,46.534
449.359,48.426
449.620,50.350
449.881,52.308
450.142,54.299
450.403,56.374
450.664,58.536
450.924,60.781
451.185,63.054
451.446,65.358
451.707,67.660
451.969,69.984
452.230,72.283
452.491,74.578
452.752,76.819
453.013,79.009
453.274,81.082
453.535,82.982
453.796,84.620
454.058,85.975
454.319,87.081
454.580,87.998
454.841,88.785
455.103,89.459
455.364,90.043
455.625,90.551
455.887,90.977
456.148,91.322
456.409,91.569
456.671,91.736
456.932,91.832
457.194,91.853
457.455,91.808
457.716,91.700
457.978,91.545
458.239,91.330
458.501,91.057
458.763,90.699
459.024,90.263
459.286,89.739
459.547,89.129
459.809,88.414
460.071,87.572
460.332,86.589
460.594,85.415
460.856,84.024
461.117,82.400
461.379,80.620
461.641,78.750
461.903,76.846
462.164,74.930
462.426,73.039
462.688,71.190
462.950,69.372
463.212,67.577
463.474,65.816
463.736,64.115
463.998,62.501
464.260,60.994
464.522,59.574
464.784,58.226
465.046,56.941
465.308,55.736
465.570,54.618
465.832,53.553
466.094,52.541
466.356,51.563
466.618,50.603
466.880,49.666
467.142,48.757
467.405,47.921
467.667,47.135
467.929,46.387
468.191,45.651
468.454,44.930
468.716,44.212
468.978,43.501
469.241,42.781
469.503,42.071
469.765,41.375
470.028,40.676
470.290,39.983
470.552,39.290
470.815,38.620
471.077,37.932
471.340,37.241
471.602,36.534
471.865,35.837
472.128,35.129
472.390,34.423
472.653,33.713
472.915,32.990
473.178,32.263
473.441,31.505
473.703,30.744
473.966,29.961
474.229,29.191
474.492,28.412
474.755,27.648
475.017,26.901
475.280,26.185
475.543,25.484
475.806,24.782
476.069,24.066
476.332,23.360
476.595,22.683
476.858,22.028
477.121,21.393
477.384,20.765
477.647,20.169
477.910,19.595
478.173,19.031
478.436,18.477
478.699,17.949
478.962,17.442
479.226,16.979
479.489,16.526
479.752,16.097
480.015,15.659
480.279,15.235
480.542,14.826
480.805,14.436
481.069,14.051
481.332,13.689
481.595,13.351
481.859,13.041
482.122,12.728
482.386,12.418
482.649,12.115
482.913,11.833
483.177,11.551
483.440,11.271
483.704,10.992
483.967,10.741
484.231,10.502
484.495,10.285
484.759,10.065
485.022,9.847
485.286,9.616
485.550,9.389
485.814,9.153
486.078,8.932
486.342,8.727
486.606,8.544
486.869,8.353
487.133,8.163
487.397,7.966
487.662,7.776
487.926,7.578
488.190,7.392
488.454,7.203
488.718,7.024
488.982,6.833
489.246,6.661
489.511,6.480
489.775,6.305
490.039,6.122
490.304,5.951
490.568,5.778
490.832,5.615
491.097,5.456
491.361,5.320
491.626,5.178
491.890,5.042
492.155,4.896
492.419,4.753
492.684,4.603
492.949,4.464
493.213,4.335
493.478,4.223
493.743,4.106
494.008,3.989
494.272,3.872
494.537,3.773
494.802,3.677
495.067,3.589
495.332,3.501
495.597,3.428
495.862,3.349
496.127,3.275
496.392,3.187
496.657,3.104
496.922,3.024
497.187,2.958
497.452,2.898
497.718,2.849
497.983,2.798
498.248,2.748
498.513,2.688
498.779,2.644
499.044,2.601
499.310,2.558
499.575,2.503
499.841,2.455
500.106,2.413
500.372,2.374
500.637,2.338
500.903,2.313
501.168,2.289
501.434,2.260
501.700,2.223
501.966,2.191
502.231,2.160
502.497,2.128
502.763,2.089
503.029,2.056
503.295,2.028
503.561,2.006
503.827,1.986
504.093,1.971
504.359,1.951
504.625,1.932
504.891,1.911
505.157,1.895
505.423,1.870
505.690,1.843
505.956,1.817
506.222,1.800
506.489,1.796
506.755,1.797
507.021,1.797
507.288,1.790
507.554,1.773
507.821,1.754
508.087,1.738
508.354,1.733
508.621,1.723
508.887,1.711
509.154,1.696
509.421,1.685
509.687,1.672
509.954,1.658
510.221,1.644
510.488,1.639
510.755,1.635
511.022,1.633
511.289,1.623
511.556,1.614
511.823,1.607
512.090,1.606
512.357,1.600
512.624,1.595
512.891,1.584
513.159,1.573
513.426,1.555
513.693,1.545
513.960,1.541
514.228,1.542
514.495,1.538
514.763,1.530
515.030,1.521
515.298,1.508
515.565,1.498
515.833,1.491
516.100,1.487
516.368,1.481
516.636,1.472
516.904,1.469
517.171,1.467
517.439,1.464
517.707,1.453
517.975,1.445
518.243,1.443
518.511,1.443
518.779,1.437
519.047,1.433
519.315,1.433
519.583,1.432
519.851,1.426
520.119,1.421
520.387,1.418
520.656,1.415
520.924,1.411
521.192,1.409
521.461,1.408
521.729,1.411
521.997,1.415
522.266,1.416
522.534,1.411
522.803,1.405
523.071,1.401
523.340,1.393
523.609,1.385
523.877,1.378
524.146,1.377
524.415,1.380
524.684,1.385
524.952,1.385
525.221,1.383
525.490,1.383
525.759,1.384
526.028,1.381
526.297,1.371
526.566,1.364
526.835,1.360
527.104,1.359
527.373,1.360
527.642,1.362
527.912,1.357
528.181,1.349
528.450,1.344
528.719,1.350
528.989,1.361
529.258,1.371
529.528,1.371
529.797,1.364
530.067,1.358
530.336,1.355
530.606,1.354
530.875,1.350
531.145,1.348
531.414,1.350
531.684,1.356
531.954,1.356
532.224,1.349
532.493,1.333
532.763,1.327
533.033,1.328
533.303,1.335
533.573,1.338
533.843,1.335
534.113,1.331
534.383,1.326
534.653,1.325
534.923,1.325
535.193,1.328
535.463,1.334
535.733,1.341
536.004,1.349
536.274,1.351
536.544,1.346
536.814,1.338
537.085,1.330
537.355,1.331
537.626,1.340
537.896,1.349
538.166,1.354
538.437,1.352
538.707,1.346
538.978,1.341
539.249,1.346
539.519,1.354
539.790,1.353
540.061,1.347
540.331,1.345
540.602,1.351
540.873,1.356
541.144,1.356
541.414,1.353
541.685,1.352
541.956,1.350
542.227,1.349
542.498,1.344
542.769,1.341
543.040,1.343
543.311,1.350
543.582,1.356
543.853,1.362
544.124,1.366
544.396,1.370
544.667,1.371
544.938,1.365
545.209,1.349
545.480,1.338
545.752,1.336
546.023,1.343
546.294,1.340
546.566,1.334
546.837,1.325
547.109,1.319
547.380,1.314
547.652,1.310
547.923,1.309
548.195,1.316
548.466,1.328
548.738,1.338
549.009,1.338
549.281,1.332
549.553,1.322
549.824,1.310
550.096,1.301
550.368,1.300
550.640,1.305
550.911,1.310
551.183,1.320
551.455,1.333
551.727,1.341
551.999,1.335
552.271,1.320
552.543,1.310
552.815,1.307
553.087,1.309
553.359,1.312
553.631,1.315
553.903,1.318
554.175,1.321
554.447,1.326
554.719,1.324
554.991,1.321
555.263,1.315
555.535,1.311
555.808,1.306
556.080,1.301
556.352,1.300
556.624,1.301
556.897,1.303
557.169,1.305
557.441,1.301
557.714,1.298
557.986,1.294
558.258,1.292
558.531,1.293
558.803,1.293
559.076,1.293
559.348,1.291
559.621,1.292
559.893,1.294
560.166,1.294
560.438,1.293
560.711,1.292
560.983,1.294
561.256,1.297
561.528,1.301
561.801,1.306
562.074,1.311
562.346,1.317
562.619,1.321
562.892,1.319
563.164,1.314
563.437,1.312
563.710,1.310
563.983,1.303
564.255,1.291
564.528,1.290
564.801,1.293
565.074,1.296
565.346,1.292
565.619,1.292
565.892,1.295
566.165,1.297
566.438,1.291
566.711,1.283
566.984,1.281
567.257,1.284
567.529,1.292
567.802,1.300
568.075,1.304
568.348,1.301
568.621,1.298
568.894,1.295
569.167,1.292
569.440,1.286
569.713,1.277
569.986,1.270
570.259,1.267
570.532,1.274
570.805,1.279
571.078,1.285
571.351,1.288
571.625,1.288
571.898,1.284
572.171,1.279
572.444,1.276
572.717,1.281
572.990,1.288
573.263,1.287
573.536,1.276
573.809,1.263
574.083,1.257
574.356,1.264
574.629,1.279
574.902,1.288
575.175,1.287
575.448,1.277
575.721,1.270
575.995,1.269
576.268,1.273
576.541,1.284
576.814,1.291
577.087,1.295
577.361,1.294
577.634,1.289
577.907,1.279
578.180,1.268
578.453,1.262
578.727,1.263
579.000,1.265
579.273,1.269
579.546,1.277
579.820,1.286
580.093,1.289
580.366,1.285
580.639,1.275
580.913,1.269
581.186,1.265
581.459,1.266
581.732,1.266
582.005,1.269
582.279,1.270
582.552,1.273
582.825,1.271
583.098,1.271
583.372,1.269
583.645,1.270
583.918,1.274
584.191,1.277
584.464,1.277
584.738,1.275
585.011,1.275
585.284,1.274
585.557,1.272
585.831,1.274
586.104,1.285
586.377,1.301
586.650,1.309
586.923,1.309
587.196,1.301
587.470,1.293
587.743,1.287
588.016,1.284
588.289,1.286
588.562,1.292
588.835,1.293
589.109,1.286
589.382,1.277
589.655,1.271
589.928,1.265
590.201,1.262
590.474,1.263
590.747,1.273
591.020,1.283
591.293,1.288
591.567,1.288
591.840,1.283
592.113,1.277
592.386,1.269
592.659,1.266
592.932,1.267
593.205,1.270
593.478,1.271
593.751,1.267
594.024,1.264
594.297,1.261
594.570,1.262
594.843,1.268
595.116,1.278
595.389,1.283
595.662,1.279
595.934,1.276
596.207,1.280
596.480,1.287
596.753,1.291
597.026,1.288
597.299,1.285
597.572,1.284
597.844,1.280
598.117,1.270
598.390,1.261
598.663,1.259
598.936,1.265
599.208,1.270
599.481,1.278
599.754,1.282
600.026,1.277
600.299,1.264
600.572,1.253
600.844,1.249
601.117,1.249
601.390,1.249
601.662,1.248
601.935,1.247
602.207,1.249
602.480,1.256
602.752,1.259
603.025,1.257
603.297,1.256
603.570,1.260
603.842,1.267
604.115,1.270
604.387,1.273
604.660,1.270
604.932,1.268
605.204,1.267
605.477,1.272
605.749,1.281
606.021,1.289
606.294,1.294
606.566,1.291
606.838,1.286
607.110,1.285
607.383,1.292
607.655,1.300
607.927,1.309
608.199,1.316
608.471,1.321
608.743,1.317
609.015,1.309
609.287,1.300
609.559,1.298
609.831,1.299
610.103,1.298
610.375,1.293
610.647,1.285
610.919,1.280
611.191,1.278
611.463,1.278
611.735,1.277
612.007,1.272
612.278,1.269
612.550,1.267
612.822,1.271
613.094,1.274
613.365,1.277
613.637,1.281
613.909,1.280
614.180,1.281
614.452,1.277
614.723,1.275
614.995,1.269
615.266,1.265
615.538,1.268
615.809,1.269
616.081,1.263
616.352,1.255
616.623,1.253
616.895,1.255
617.166,1.254
617.437,1.252
617.709,1.252
617.980,1.255
618.251,1.261
618.522,1.270
618.793,1.280
619.065,1.288
619.336,1.283
619.607,1.272
619.878,1.265
620.149,1.270
620.420,1.273
620.691,1.270
620.962,1.270
621.232,1.275
621.503,1.276
621.774,1.272
622.045,1.269
622.316,1.269
622.586,1.276
622.857,1.284
623.128,1.286
623.398,1.283
623.669,1.277
623.940,1.270
624.210,1.265
624.481,1.268
624.751,1.272
625.021,1.273
625.292,1.266
625.562,1.262
625.833,1.259
626.103,1.256
626.373,1.252
626.643,1.253
626.914,1.256
627.184,1.259
627.454,1.257
627.724,1.256
627.994,1.256
628.264,1.256
628.534,1.253
628.804,1.253
629.074,1.258
629.344,1.266
629.614,1.267
629.884,1.260
630.154,1.253
630.424,1.246
630.693,1.239
630.963,1.228
631.233,1.216
631.502,1.216
631.772,1.225
632.041,1.238
632.311,1.245
632.581,1.251
632.850,1.253
633.119,1.251
633.389,1.242
633.658,1.236
633.928,1.237
634.197,1.246
634.466,1.256
634.735,1.262
635.004,1.258
635.274,1.255
635.543,1.252
635.812,1.254
636.081,1.253
636.350,1.252
636.619,1.249
636.888,1.249
637.157,1.252
637.426,1.257
637.694,1.258
637.963,1.253
638.232,1.246
638.501,1.241
638.769,1.244
639.038,1.250
639.307,1.258
639.575,1.260
639.844,1.256
640.112,1.249
640.381,1.241
640.649,1.238
640.917,1.241
641.186,1.243
641.454,1.246
641.722,1.246
641.991,1.248
642.259,1.245
642.527,1.243
642.795,1.241
643.063,1.236
643.331,1.233
643.599,1.233
643.867,1.240
644.135,1.246
644.403,1.253
644.671,1.252
644.939,1.254
645.206,1.254
645.474,1.258
645.742,1.253
646.009,1.243
646.277,1.236
646.545,1.236
646.812,1.244
647.080,1.253
647.347,1.258
647.615,1.257
647.882,1.248
648.149,1.239
648.417,1.235
648.684,1.239
648.951,1.248
649.219,1.254
649.486,1.256
649.753,1.253
650.020,1.250
650.287,1.246
650.554,1.243
650.821,1.240
651.088,1.238
651.355,1.241
651.622,1.242
651.889,1.243
652.155,1.242
652.422,1.245
652.689,1.251
652.956,1.254
653.222,1.260
653.489,1.273
653.755,1.279
654.022,1.271
654.288,1.253
654.555,1.245
654.821,1.251
655.088,1.259
655.354,1.262
655.620,1.263
655.887,1.261
656.153,1.262
656.419,1.260
656.685,1.262
656.951,1.262
657.217,1.258
657.483,1.249
657.749,1.244
658.015,1.244
658.281,1.245
658.547,1.240
658.813,1.233
659.079,1.228
659.345,1.226
659.610,1.226
659.876,1.229
660.142,1.236
660.407,1.245
660.673,1.251
660.939,1.254
661.204,1.252
661.470,1.248
661.735,1.245
662.000,1.244
662.266,1.241
662.531,1.237
662.796,1.234
663.062,1.231
663.327,1.229
663.592,1.229
663.857,1.232
664.122,1.236
664.388,1.236
664.653,1.239
664.918,1.242
665.183,1.244
665.448,1.247
665.712,1.248
665.977,1.254
666.242,1.254
666.507,1.242
666.772,1.228
667.037,1.219
667.301,1.224
667.566,1.230
667.831,1.235
668.095,1.241
668.360,1.242
668.624,1.240
668.889,1.239
669.153,1.237
669.418,1.237
669.682,1.234
669.946,1.237
670.211,1.245
670.475,1.256
670.739,1.268
671.004,1.278
671.268,1.293
671.532,1.305
671.796,1.297
672.060,1.280
672.324,1.263
672.588,1.265
672.852,1.275
673.116,1.301
673.380,1.321
673.644,1.308
673.908,1.274
674.172,1.248
674.436,1.250
674.700,1.254
674.963,1.256
675.227,1.256
675.491,1.252
675.754,1.245
676.018,1.240
676.282,1.240
676.545,1.240
676.809,1.237
677.072,1.231
677.336,1.230
677.599,1.230
677.863,1.230
678.126,1.231
678.389,1.238
678.653,1.244
678.916,1.243
679.179,1.238
679.442,1.234
679.706,1.237
679.969,1.239
680.232,1.243
680.495,1.248
680.758,1.253
681.021,1.252
681.284,1.244
681.547,1.238
681.810,1.239
682.073,1.246
682.336,1.251
682.599,1.249
682.862,1.244
683.125,1.247
683.388,1.255
683.651,1.262
683.913,1.260
684.176,1.253
684.439,1.241
684.702,1.232
684.964,1.232
685.227,1.239
685.490,1.249
685.752,1.258
686.015,1.263
686.277,1.261
686.540,1.255
686.802,1.246
687.065,1.240
687.327,1.238
687.590,1.240
687.852,1.237
688.115,1.230
688.377,1.221
688.639,1.216
688.902,1.214
689.164,1.219
689.426,1.229
689.689,1.240
689.951,1.242
690.213,1.240
690.475,1.241
690.737,1.242
691.000,1.242
691.262,1.237
691.524,1.238
691.786,1.243
692.048,1.251
692.310,1.248
692.572,1.237
692.834,1.226
693.096,1.227
693.358,1.239
693.620,1.250
693.882,1.256
694.144,1.252
694.406,1.243
694.668,1.238
694.930,1.236
695.192,1.235
695.453,1.234
695.715,1.236
695.977,1.236
696.239,1.234
696.501,1.233
696.762,1.234
697.024,1.233
697.286,1.228
697.548,1.223
697.809,1.220
698.071,1.220
698.333,1.221
698.594,1.224
698.856,1.228
699.118,1.230
699.379,1.232
699.641,1.235
699.902,1.241
700.164,1.243
700.426,1.240
700.687,1.232
700.949,1.229
701.210,1.227
701.472,1.225
701.733,1.224
701.995,1.227
702.256,1.231
702.518,1.235
702.779,1.238
703.041,1.244
703.302,1.252
703.563,1.251
703.825,1.242
704.086,1.234
704.348,1.231
704.609,1.233
704.871,1.239
705.132,1.243
705.393,1.239
705.655,1.230
705.916,1.225
706.177,1.226
706.439,1.227
706.700,1.225
706.961,1.224
707.223,1.222
707.484,1.212
707.745,1.201
708.007,1.190
708.268,1.182
708.529,1.171
708.790,1.160
709.052,1.152
709.313,1.153
709.574,1.154
709.835,1.156
710.097,1.150
710.358,1.143
710.619,1.136
710.881,1.131
711.142,1.126
711.403,1.125
711.664,1.123
711.926,1.120
712.187,1.120
712.448,1.124
712.709,1.131
712.970,1.137
713.232,1.141
713.493,1.144
713.754,1.143
714.015,1.144
714.277,1.148
714.538,1.156
714.799,1.163
715.060,1.165
715.322,1.161
715.583,1.156
715.844,1.149
716.105,1.143
716.367,1.139
716.628,1.141
716.889,1.142
717.150,1.136
717.411,1.128
717.673,1.126
717.934,1.128
718.195,1.133
718.457,1.130
718.718,1.125
718.979,1.121
719.240,1.124
719.502,1.132
719.763,1.138
720.024,1.140
720.286,1.142
720.547,1.140
720.808,1.135
721.069,1.127
721.331,1.124
721.592,1.127
721.853,1.129
722.115,1.130
722.376,1.130
722.638,1.131
722.899,1.130
723.160,1.123
723.422,1.116
723.683,1.112
723.944,1.117
724.206,1.122
724.467,1.123
724.729,1.120
724.990,1.121
725.252,1.123
725.513,1.121
725.775,1.114
726.036,1.107
726.298,1.105
726.559,1.108
726.821,1.113
727.082,1.116
727.344,1.117
727.605,1.118
727.867,1.117
728.128,1.117
728.390,1.116
728.652,1.123
728.913,1.132
729.175,1.141
729.436,1.144
729.698,1.144
729.960,1.139
730.221,1.131
730.483,1.120
730.745,1.116
731.007,1.118
731.268,1.126
731.530,1.130
731.792,1.130
732.054,1.131
732.315,1.135
732.577,1.138
732.839,1.134
733.101,1.128
733.363,1.121
733.625,1.117
733.887,1.119
734.149,1.121
734.411,1.126
734.673,1.127
734.935,1.127
735.197,1.125
735.459,1.128
735.721,1.132
735.983,1.131
736.245,1.125
736.507,1.125
736.769,1.129
737.031,1.130
737.293,1.124
737.555,1.115
737.818,1.107
738.080,1.102
738.342,1.101
738.604,1.103
738.867,1.107
739.129,1.109
739.391,1.108
739.654,1.106
739.916,1.105
740.178,1.111
740.441,1.120
740.703,1.124
740.966,1.123
741.228,1.119
741.491,1.118
741.753,1.122
742.016,1.123
742.278,1.124
742.541,1.124
742.804,1.128
743.066,1.130
743.329,1.129
743.592,1.125
743.854,1.127
744.117,1.133
744.380,1.136
744.643,1.131
744.905,1.125
745.168,1.122
745.431,1.120
745.694,1.114
745.957,1.110
746.220,1.110
746.483,1.112
746.746,1.111
747.009,1.116
