Wavelength (nm),Intensity B31.3,,Untitled.sp,,,B31.3,
379.792,1.977,,2018-06-14 15:00:07,,Integration Time,152 ms,
380.000,1.968,,Analyze Light,,Number of Scans to Average,25,
380.209,1.960,,,,Smoothing,1,
380.418,1.972
380.627,1.990
380.837,2.007
381.048,2.013
381.259,2.014
381.471,2.013
381.683,2.019
381.896,2.030
382.110,2.033
382.324,2.039
382.538,2.050
382.753,2.064
382.969,2.057
383.185,2.044
383.402,2.035
383.619,2.045
383.837,2.060
384.055,2.083
384.274,2.100
384.493,2.107
384.712,2.105
384.932,2.108
385.153,2.116
385.374,2.123
385.596,2.126
385.818,2.142
386.040,2.165
386.263,2.184
386.487,2.188
386.710,2.181
386.935,2.168
387.159,2.159
387.385,2.154
387.610,2.156
387.836,2.163
388.063,2.173
388.289,2.183
388.517,2.188
388.744,2.189
388.972,2.200
389.201,2.210
389.430,2.219
389.659,2.222
389.889,2.231
390.119,2.241
390.349,2.251
390.580,2.260
390.811,2.264
391.042,2.264
391.274,2.265
391.507,2.268
391.739,2.268
391.972,2.264
392.205,2.270
392.439,2.282
392.673,2.294
392.907,2.305
393.142,2.322
393.377,2.338
393.612,2.350
393.848,2.349
394.084,2.354
394.320,2.357
394.557,2.371
394.794,2.380
395.031,2.393
395.269,2.400
395.507,2.407
395.745,2.407
395.983,2.408
396.222,2.415
396.461,2.439
396.700,2.465
396.940,2.485
397.180,2.491
397.420,2.485
397.660,2.475
397.901,2.465
398.142,2.466
398.383,2.465
398.625,2.463
398.866,2.469
399.108,2.499
399.351,2.542
399.593,2.554
399.836,2.547
400.079,2.526
400.322,2.519
400.566,2.510
400.809,2.509
401.053,2.517
401.298,2.532
401.542,2.548
401.787,2.563
402.031,2.573
402.277,2.582
402.522,2.583
402.767,2.592
403.013,2.590
403.259,2.600
403.505,2.604
403.752,2.610
403.998,2.605
404.245,2.614
404.492,2.630
404.739,2.647
404.986,2.650
405.234,2.650
405.482,2.645
405.730,2.642
405.978,2.642
406.226,2.644
406.475,2.640
406.723,2.639
406.972,2.651
407.221,2.674
407.470,2.689
407.720,2.696
407.969,2.683
408.219,2.687
408.469,2.697
408.719,2.717
408.969,2.723
409.219,2.738
409.470,2.751
409.720,2.769
409.971,2.777
410.222,2.789
410.473,2.789
410.724,2.789
410.976,2.792
411.227,2.809
411.479,2.818
411.731,2.825
411.983,2.820
412.235,2.822
412.487,2.823
412.740,2.832
412.992,2.836
413.245,2.842
413.497,2.839
413.750,2.840
414.003,2.835
414.257,2.833
414.510,2.830
414.763,2.843
415.017,2.859
415.270,2.878
415.524,2.883
415.778,2.887
416.032,2.893
416.286,2.913
416.540,2.927
416.794,2.942
417.049,2.940
417.303,2.944
417.558,2.945
417.812,2.946
418.067,2.941
418.322,2.940
418.577,2.941
418.832,2.947
419.088,2.941
419.343,2.944
419.598,2.936
419.854,2.941
420.109,2.944
420.365,2.966
420.621,2.977
420.876,2.988
421.132,2.988
421.388,2.985
421.645,2.975
421.901,2.979
422.157,2.987
422.413,2.996
422.670,2.995
422.926,2.997
423.183,2.991
423.439,2.996
423.696,3.009
423.953,3.051
424.210,3.089
424.467,3.106
424.724,3.097
424.981,3.079
425.238,3.079
425.495,3.101
425.753,3.127
426.010,3.149
426.267,3.161
426.525,3.190
426.782,3.219
427.040,3.253
427.298,3.285
427.555,3.330
427.813,3.369
428.071,3.410
428.329,3.445
428.587,3.485
428.845,3.528
429.103,3.576
429.361,3.622
429.619,3.670
429.878,3.716
430.136,3.782
430.394,3.844
430.653,3.932
430.911,4.025
431.170,4.133
431.428,4.221
431.687,4.306
431.946,4.389
432.204,4.486
432.463,4.596
432.722,4.713
432.981,4.831
433.240,4.965
433.499,5.109
433.758,5.277
434.017,5.428
434.276,5.581
434.535,5.722
434.794,5.881
435.053,6.056
435.312,6.257
435.572,6.460
435.831,6.679
436.090,6.908
436.350,7.156
436.609,7.409
436.869,7.677
437.128,7.948
437.388,8.226
437.647,8.504
437.907,8.809
438.166,9.127
438.426,9.458
438.686,9.790
438.946,10.141
439.205,10.510
439.465,10.909
439.725,11.320
439.985,11.740
440.245,12.155
440.505,12.587
440.765,13.022
441.025,13.474
441.285,13.937
441.545,14.432
441.805,14.938
442.065,15.458
442.325,15.980
442.585,16.537
442.846,17.111
443.106,17.730
443.366,18.364
443.626,19.009
443.887,19.674
444.147,20.359
444.407,21.070
444.668,21.809
444.928,22.582
445.189,23.402
445.449,24.243
445.710,25.113
445.970,26.027
446.231,26.993
446.491,28.021
446.752,29.092
447.012,30.205
447.273,31.366
447.534,32.567
447.794,33.818
448.055,35.114
448.316,36.492
448.577,37.956
448.837,39.507
449.098,41.124
449.359,42.795
449.620,44.509
449.881,46.267
450.142,48.082
450.403,50.003
450.664,52.016
450.924,54.117
451.185,56.265
451.446,58.469
451.707,60.723
451.969,63.007
452.230,65.313
452.491,67.623
452.752,69.943
453.013,72.254
453.274,74.555
453.535,76.823
453.796,79.032
454.058,81.129
454.319,83.041
454.580,84.685
454.841,86.037
455.103,87.141
455.364,88.066
455.625,88.886
455.887,89.600
456.148,90.244
456.409,90.790
456.671,91.240
456.932,91.584
457.194,91.836
457.455,92.023
457.716,92.151
457.978,92.222
458.239,92.228
458.501,92.173
458.763,92.062
459.024,91.902
459.286,91.685
459.547,91.405
459.809,91.046
460.071,90.608
460.332,90.096
460.594,89.495
460.856,88.817
461.117,88.038
461.379,87.178
461.641,86.171
461.903,84.967
462.164,83.523
462.426,81.881
462.688,80.116
462.950,78.306
463.212,76.492
463.474,74.679
463.736,72.882
463.998,71.139
464.260,69.480
464.522,67.900
464.784,66.358
465.046,64.873
465.308,63.465
465.570,62.149
465.832,60.900
466.094,59.700
466.356,58.539
466.618,57.423
466.880,56.346
467.142,55.317
467.405,54.349
467.667,53.436
467.929,52.563
468.191,51.699
468.454,50.857
468.716,50.046
468.978,49.240
469.241,48.424
469.503,47.609
469.765,46.828
470.028,46.094
470.290,45.371
470.552,44.654
470.815,43.935
471.077,43.227
471.340,42.507
471.602,41.779
471.865,41.049
472.128,40.330
472.390,39.621
472.653,38.923
472.915,38.207
473.178,37.472
473.441,36.707
473.703,35.925
473.966,35.131
474.229,34.325
474.492,33.522
474.755,32.712
475.017,31.916
475.280,31.137
475.543,30.373
475.806,29.594
476.069,28.809
476.332,28.034
476.595,27.291
476.858,26.560
477.121,25.844
477.384,25.129
477.647,24.443
477.910,23.760
478.173,23.105
478.436,22.441
478.699,21.815
478.962,21.209
479.226,20.644
479.489,20.083
479.752,19.536
480.015,18.991
480.279,18.479
480.542,17.980
480.805,17.500
481.069,17.026
481.332,16.576
481.595,16.150
481.859,15.763
482.122,15.382
482.386,15.011
482.649,14.638
482.913,14.272
483.177,13.910
483.440,13.562
483.704,13.243
483.967,12.961
484.231,12.682
484.495,12.414
484.759,12.143
485.022,11.876
485.286,11.605
485.550,11.337
485.814,11.052
486.078,10.781
486.342,10.517
486.606,10.295
486.869,10.074
487.133,9.872
487.397,9.664
487.662,9.457
487.926,9.233
488.190,9.014
488.454,8.792
488.718,8.586
488.982,8.374
489.246,8.182
489.511,7.977
489.775,7.773
490.039,7.561
490.304,7.367
490.568,7.175
490.832,6.996
491.097,6.819
491.361,6.653
491.626,6.479
491.890,6.305
492.155,6.129
492.419,5.972
492.684,5.810
492.949,5.647
493.213,5.484
493.478,5.344
493.743,5.204
494.008,5.053
494.272,4.904
494.537,4.777
494.802,4.660
495.067,4.551
495.332,4.440
495.597,4.340
495.862,4.229
496.127,4.126
496.392,4.019
496.657,3.920
496.922,3.813
497.187,3.721
497.452,3.641
497.718,3.584
497.983,3.519
498.248,3.452
498.513,3.375
498.779,3.320
499.044,3.266
499.310,3.203
499.575,3.120
499.841,3.050
500.106,2.993
500.372,2.939
500.637,2.890
500.903,2.857
501.168,2.826
501.434,2.782
501.700,2.721
501.966,2.672
502.231,2.625
502.497,2.584
502.763,2.537
503.029,2.494
503.295,2.455
503.561,2.428
503.827,2.411
504.093,2.398
504.359,2.378
504.625,2.357
504.891,2.329
505.157,2.308
505.423,2.275
505.690,2.240
505.956,2.205
506.222,2.188
506.489,2.191
506.755,2.197
507.021,2.193
507.288,2.181
507.554,2.154
507.821,2.132
508.087,2.113
508.354,2.112
508.621,2.104
508.887,2.087
509.154,2.063
509.421,2.045
509.687,2.026
509.954,2.006
510.221,1.988
510.488,1.985
510.755,1.987
511.022,1.991
511.289,1.978
511.556,1.959
511.823,1.938
512.090,1.933
512.357,1.923
512.624,1.913
512.891,1.896
513.159,1.884
513.426,1.873
513.693,1.864
513.960,1.861
514.228,1.861
514.495,1.859
514.763,1.853
515.030,1.840
515.298,1.823
515.565,1.812
515.833,1.809
516.100,1.809
516.368,1.808
516.636,1.802
516.904,1.804
517.171,1.795
517.439,1.791
517.707,1.781
517.975,1.778
518.243,1.775
518.511,1.773
518.779,1.758
519.047,1.756
519.315,1.756
519.583,1.755
519.851,1.736
520.119,1.719
520.387,1.710
520.656,1.710
520.924,1.714
521.192,1.721
521.461,1.727
521.729,1.732
521.997,1.735
522.266,1.736
522.534,1.735
522.803,1.735
523.071,1.729
523.340,1.713
523.609,1.692
523.877,1.678
524.146,1.673
524.415,1.676
524.684,1.681
524.952,1.683
525.221,1.687
525.490,1.695
525.759,1.705
526.028,1.704
526.297,1.686
526.566,1.672
526.835,1.665
527.104,1.669
527.373,1.675
527.642,1.674
527.912,1.665
528.181,1.654
528.450,1.652
528.719,1.658
528.989,1.672
529.258,1.685
529.528,1.687
529.797,1.678
530.067,1.671
530.336,1.664
530.606,1.656
530.875,1.645
531.145,1.645
531.414,1.653
531.684,1.664
531.954,1.665
532.224,1.659
532.493,1.641
532.763,1.634
533.033,1.635
533.303,1.644
533.573,1.650
533.843,1.644
534.113,1.636
534.383,1.624
534.653,1.621
534.923,1.624
535.193,1.631
535.463,1.643
535.733,1.651
536.004,1.657
536.274,1.656
536.544,1.648
536.814,1.637
537.085,1.626
537.355,1.631
537.626,1.646
537.896,1.659
538.166,1.661
538.437,1.657
538.707,1.653
538.978,1.657
539.249,1.665
539.519,1.668
539.790,1.655
540.061,1.643
540.331,1.641
540.602,1.656
540.873,1.664
541.144,1.664
541.414,1.656
541.685,1.653
541.956,1.651
542.227,1.651
542.498,1.645
542.769,1.644
543.040,1.650
543.311,1.666
543.582,1.682
543.853,1.688
544.124,1.688
544.396,1.688
544.667,1.689
544.938,1.686
545.209,1.662
545.480,1.645
545.752,1.635
546.023,1.647
546.294,1.645
546.566,1.636
546.837,1.622
547.109,1.615
547.380,1.613
547.652,1.612
547.923,1.610
548.195,1.614
548.466,1.625
548.738,1.640
549.009,1.642
549.281,1.635
549.553,1.617
549.824,1.596
550.096,1.581
550.368,1.581
550.640,1.589
550.911,1.603
551.183,1.618
551.455,1.639
551.727,1.653
551.999,1.646
552.271,1.627
552.543,1.607
552.815,1.601
553.087,1.611
553.359,1.622
553.631,1.628
553.903,1.625
554.175,1.627
554.447,1.633
554.719,1.637
554.991,1.633
555.263,1.628
555.535,1.620
555.808,1.611
556.080,1.601
556.352,1.600
556.624,1.604
556.897,1.606
557.169,1.605
557.441,1.600
557.714,1.593
557.986,1.587
558.258,1.579
558.531,1.583
558.803,1.591
559.076,1.600
559.348,1.601
559.621,1.597
559.893,1.598
560.166,1.597
560.438,1.597
560.711,1.593
560.983,1.588
561.256,1.585
561.528,1.590
561.801,1.602
562.074,1.613
562.346,1.621
562.619,1.625
562.892,1.622
563.164,1.616
563.437,1.615
563.710,1.614
563.983,1.603
564.255,1.585
564.528,1.580
564.801,1.593
565.074,1.607
565.346,1.604
565.619,1.601
565.892,1.608
566.165,1.611
566.438,1.600
566.711,1.582
566.984,1.577
567.257,1.579
567.529,1.588
567.802,1.602
568.075,1.616
568.348,1.618
568.621,1.614
568.894,1.606
569.167,1.604
569.440,1.596
569.713,1.579
569.986,1.565
570.259,1.555
570.532,1.566
570.805,1.580
571.078,1.589
571.351,1.593
571.625,1.594
571.898,1.593
572.171,1.583
572.444,1.574
572.717,1.581
572.990,1.595
573.263,1.592
573.536,1.575
573.809,1.555
574.083,1.552
574.356,1.563
574.629,1.586
574.902,1.605
575.175,1.607
575.448,1.591
575.721,1.577
575.995,1.570
576.268,1.569
576.541,1.576
576.814,1.585
577.087,1.593
577.361,1.594
577.634,1.588
577.907,1.572
578.180,1.556
578.453,1.551
578.727,1.557
579.000,1.565
579.273,1.575
579.546,1.590
579.820,1.603
580.093,1.603
580.366,1.592
580.639,1.575
580.913,1.569
581.186,1.569
581.459,1.573
581.732,1.565
582.005,1.558
582.279,1.547
582.552,1.544
582.825,1.543
583.098,1.551
583.372,1.563
583.645,1.573
583.918,1.583
584.191,1.588
584.464,1.585
584.738,1.579
585.011,1.577
585.284,1.576
585.557,1.573
585.831,1.575
586.104,1.589
586.377,1.609
586.650,1.620
586.923,1.617
587.196,1.607
587.470,1.590
587.743,1.577
588.016,1.569
588.289,1.573
588.562,1.585
588.835,1.587
589.109,1.576
589.382,1.560
589.655,1.550
589.928,1.548
590.201,1.547
590.474,1.557
590.747,1.569
591.020,1.582
591.293,1.584
591.567,1.584
591.840,1.577
592.113,1.567
592.386,1.558
592.659,1.551
592.932,1.551
593.205,1.560
593.478,1.563
593.751,1.558
594.024,1.549
594.297,1.540
594.570,1.541
594.843,1.554
595.116,1.572
595.389,1.581
595.662,1.573
595.934,1.570
596.207,1.573
596.480,1.585
596.753,1.593
597.026,1.591
597.299,1.587
597.572,1.582
597.844,1.575
598.117,1.561
598.390,1.550
598.663,1.548
598.936,1.557
599.208,1.565
599.481,1.572
599.754,1.573
600.026,1.557
600.299,1.540
600.572,1.528
600.844,1.530
601.117,1.524
601.390,1.524
601.662,1.523
601.935,1.521
602.207,1.517
602.480,1.522
602.752,1.528
603.025,1.527
603.297,1.524
603.570,1.538
603.842,1.562
604.115,1.579
604.387,1.587
604.660,1.575
604.932,1.567
605.204,1.563
605.477,1.574
605.749,1.592
606.021,1.607
606.294,1.615
606.566,1.607
606.838,1.602
607.110,1.603
607.383,1.612
607.655,1.617
607.927,1.622
608.199,1.629
608.471,1.631
608.743,1.619
609.015,1.606
609.287,1.595
609.559,1.598
609.831,1.605
610.103,1.611
610.375,1.608
610.647,1.596
610.919,1.582
611.191,1.577
611.463,1.580
611.735,1.586
612.007,1.581
612.278,1.574
612.550,1.568
612.822,1.573
613.094,1.582
613.365,1.585
613.637,1.589
613.909,1.590
614.180,1.593
614.452,1.587
614.723,1.576
614.995,1.563
615.266,1.558
615.538,1.570
615.809,1.585
616.081,1.587
616.352,1.578
616.623,1.567
616.895,1.561
617.166,1.551
617.437,1.543
617.709,1.544
617.980,1.552
618.251,1.565
618.522,1.574
618.793,1.585
619.065,1.599
619.336,1.592
619.607,1.570
619.878,1.555
620.149,1.564
620.420,1.579
620.691,1.580
620.962,1.581
621.232,1.586
621.503,1.584
621.774,1.577
622.045,1.567
622.316,1.575
622.586,1.589
622.857,1.606
623.128,1.608
623.398,1.601
623.669,1.589
623.940,1.578
624.210,1.567
624.481,1.568
624.751,1.570
625.021,1.567
625.292,1.554
625.562,1.552
625.833,1.554
626.103,1.552
626.373,1.541
626.643,1.537
626.914,1.538
627.184,1.548
627.454,1.553
627.724,1.553
627.994,1.553
628.264,1.554
628.534,1.547
628.804,1.538
629.074,1.541
629.344,1.556
629.614,1.564
629.884,1.556
630.154,1.540
630.424,1.523
630.693,1.509
630.963,1.495
631.233,1.486
631.502,1.489
631.772,1.508
632.041,1.533
632.311,1.546
632.581,1.550
632.850,1.544
633.119,1.528
633.389,1.507
633.658,1.493
633.928,1.495
634.197,1.506
634.466,1.526
634.735,1.543
635.004,1.543
635.274,1.535
635.543,1.525
635.812,1.528
636.081,1.534
636.350,1.537
636.619,1.540
636.888,1.539
637.157,1.543
637.426,1.550
637.694,1.553
637.963,1.547
638.232,1.538
638.501,1.531
638.769,1.537
639.038,1.546
639.307,1.565
639.575,1.581
639.844,1.579
640.112,1.560
640.381,1.535
640.649,1.528
640.917,1.536
641.186,1.541
641.454,1.543
641.722,1.540
641.991,1.542
642.259,1.530
642.527,1.520
642.795,1.515
643.063,1.510
643.331,1.507
643.599,1.506
643.867,1.523
644.135,1.534
644.403,1.542
644.671,1.540
644.939,1.545
645.206,1.551
645.474,1.558
645.742,1.556
646.009,1.539
646.277,1.533
646.545,1.532
646.812,1.550
647.080,1.563
647.347,1.570
647.615,1.565
647.882,1.543
648.149,1.520
648.417,1.503
648.684,1.507
648.951,1.527
649.219,1.549
649.486,1.560
649.753,1.558
650.020,1.547
650.287,1.536
650.554,1.525
650.821,1.520
651.088,1.516
651.355,1.527
651.622,1.538
651.889,1.545
652.155,1.537
652.422,1.533
652.689,1.540
652.956,1.548
653.222,1.559
653.489,1.576
653.755,1.590
654.022,1.588
654.288,1.565
654.555,1.547
654.821,1.544
655.088,1.551
655.354,1.560
655.620,1.567
655.887,1.572
656.153,1.576
656.419,1.578
656.685,1.579
656.951,1.575
657.217,1.564
657.483,1.554
657.749,1.545
658.015,1.544
658.281,1.543
658.547,1.537
658.813,1.528
659.079,1.516
659.345,1.508
659.610,1.503
659.876,1.503
660.142,1.505
660.407,1.507
660.673,1.514
660.939,1.526
661.204,1.529
661.470,1.523
661.735,1.514
662.000,1.517
662.266,1.516
662.531,1.511
662.796,1.508
663.062,1.505
663.327,1.500
663.592,1.497
663.857,1.498
664.122,1.500
664.388,1.497
664.653,1.502
664.918,1.518
665.183,1.529
665.448,1.538
665.712,1.541
665.977,1.550
666.242,1.551
666.507,1.530
666.772,1.504
667.037,1.485
667.301,1.489
667.566,1.500
667.831,1.511
668.095,1.516
668.360,1.523
668.624,1.518
668.889,1.525
669.153,1.522
669.418,1.521
669.682,1.518
669.946,1.523
670.211,1.538
670.475,1.548
670.739,1.560
671.004,1.575
671.268,1.605
671.532,1.635
671.796,1.622
672.060,1.594
672.324,1.567
672.588,1.575
672.852,1.589
673.116,1.627
673.380,1.664
673.644,1.642
673.908,1.587
674.172,1.532
674.436,1.532
674.700,1.539
674.963,1.551
675.227,1.561
675.491,1.554
675.754,1.539
676.018,1.524
676.282,1.526
676.545,1.527
676.809,1.520
677.072,1.508
677.336,1.501
677.599,1.505
677.863,1.508
678.126,1.515
678.389,1.528
678.653,1.543
678.916,1.542
679.179,1.523
679.442,1.511
679.706,1.521
679.969,1.534
680.232,1.545
680.495,1.556
680.758,1.567
681.021,1.566
681.284,1.547
681.547,1.528
681.810,1.533
682.073,1.555
682.336,1.572
682.599,1.569
682.862,1.555
683.125,1.547
683.388,1.547
683.651,1.544
683.913,1.538
684.176,1.525
684.439,1.512
684.702,1.496
684.964,1.489
685.227,1.493
685.490,1.515
685.752,1.541
686.015,1.555
686.277,1.550
686.540,1.533
686.802,1.517
687.065,1.513
687.327,1.517
687.590,1.521
687.852,1.514
688.115,1.499
688.377,1.490
688.639,1.488
688.902,1.494
689.164,1.502
689.426,1.522
689.689,1.540
689.951,1.546
690.213,1.541
690.475,1.537
690.737,1.534
691.000,1.523
691.262,1.514
691.524,1.516
691.786,1.537
692.048,1.557
692.310,1.556
692.572,1.530
692.834,1.500
693.096,1.493
693.358,1.511
693.620,1.537
693.882,1.557
694.144,1.554
694.406,1.539
694.668,1.526
694.930,1.520
695.192,1.518
695.453,1.522
695.715,1.529
695.977,1.529
696.239,1.519
696.501,1.517
696.762,1.525
697.024,1.530
697.286,1.521
697.548,1.512
697.809,1.512
698.071,1.513
698.333,1.514
698.594,1.514
698.856,1.522
699.118,1.525
699.379,1.531
699.641,1.543
699.902,1.556
700.164,1.554
700.426,1.538
700.687,1.518
700.949,1.514
701.210,1.514
701.472,1.514
701.733,1.506
701.995,1.507
702.256,1.508
702.518,1.511
702.779,1.512
703.041,1.532
703.302,1.556
703.563,1.560
703.825,1.543
704.086,1.525
704.348,1.516
704.609,1.515
704.871,1.524
705.132,1.540
705.393,1.544
705.655,1.537
705.916,1.528
706.177,1.527
706.439,1.533
706.700,1.539
706.961,1.540
707.223,1.541
707.484,1.521
707.745,1.501
708.007,1.475
708.268,1.459
708.529,1.446
708.790,1.431
709.052,1.424
709.313,1.426
709.574,1.431
709.835,1.436
710.097,1.428
710.358,1.413
710.619,1.398
710.881,1.385
711.142,1.376
711.403,1.366
711.664,1.363
711.926,1.361
712.187,1.369
712.448,1.377
712.709,1.389
712.970,1.396
713.232,1.401
713.493,1.407
713.754,1.411
714.015,1.419
714.277,1.427
714.538,1.437
714.799,1.452
715.060,1.460
715.322,1.457
715.583,1.439
715.844,1.421
716.105,1.407
716.367,1.400
716.628,1.402
716.889,1.406
717.150,1.405
717.411,1.392
717.673,1.388
717.934,1.393
718.195,1.402
718.457,1.397
718.718,1.383
718.979,1.376
719.240,1.381
719.502,1.395
719.763,1.404
720.024,1.410
720.286,1.411
720.547,1.406
720.808,1.396
721.069,1.387
721.331,1.388
721.592,1.401
721.853,1.412
722.115,1.419
722.376,1.420
722.638,1.419
722.899,1.416
723.160,1.407
723.422,1.396
723.683,1.388
723.944,1.390
724.206,1.394
724.467,1.395
724.729,1.393
724.990,1.403
725.252,1.415
725.513,1.413
725.775,1.397
726.036,1.381
726.298,1.377
726.559,1.382
726.821,1.385
727.082,1.386
727.344,1.382
727.605,1.382
727.867,1.380
728.128,1.383
728.390,1.385
728.652,1.396
728.913,1.408
729.175,1.417
729.436,1.417
729.698,1.418
729.960,1.415
730.221,1.409
730.483,1.393
730.745,1.387
731.007,1.387
731.268,1.389
731.530,1.388
731.792,1.390
732.054,1.396
732.315,1.402
732.577,1.405
732.839,1.398
733.101,1.388
733.363,1.380
733.625,1.382
733.887,1.387
734.149,1.389
734.411,1.394
734.673,1.399
734.935,1.408
735.197,1.411
735.459,1.417
735.721,1.418
735.983,1.411
736.245,1.394
736.507,1.389
736.769,1.395
737.031,1.404
737.293,1.397
737.555,1.384
737.818,1.374
738.080,1.373
738.342,1.377
738.604,1.378
738.867,1.378
739.129,1.374
739.391,1.374
739.654,1.374
739.916,1.374
740.178,1.380
740.441,1.390
740.703,1.397
740.966,1.395
741.228,1.389
741.491,1.386
741.753,1.391
742.016,1.392
742.278,1.393
742.541,1.392
742.804,1.394
743.066,1.399
743.329,1.401
743.592,1.396
743.854,1.394
744.117,1.400
744.380,1.409
744.643,1.406
744.905,1.398
745.168,1.395
745.431,1.393
745.694,1.388
745.957,1.382
746.220,1.379
746.483,1.380
746.746,1.382
747.009,1.393
747.272,1.414
747.535,1.432
747.798,1.435
748.061,1.420
