Wavelength (nm),Intensity Source #5,,Untitled.sp,,,Source #5,
379.792,1.983,,2018-06-14 14:11:06,,Integration Time,152 ms,
380.000,1.980,,Analyze Light,,Number of Scans to Average,25,
380.209,1.975,,,,Smoothing,1,
380.418,1.986
380.627,2.000
380.837,2.016
381.048,2.023
381.259,2.023
381.471,2.019
381.683,2.022
381.896,2.028
382.110,2.033
382.324,2.046
382.538,2.066
382.753,2.081
382.969,2.072
383.185,2.059
383.402,2.053
383.619,2.065
383.837,2.081
384.055,2.103
384.274,2.120
384.493,2.128
384.712,2.128
384.932,2.133
385.153,2.144
385.374,2.155
385.596,2.163
385.818,2.177
386.040,2.196
386.263,2.215
386.487,2.223
386.710,2.218
386.935,2.203
387.159,2.192
387.385,2.184
387.610,2.186
387.836,2.191
388.063,2.201
388.289,2.211
388.517,2.218
388.744,2.217
388.972,2.227
389.201,2.236
389.430,2.245
389.659,2.248
389.889,2.257
390.119,2.269
390.349,2.280
390.580,2.288
390.811,2.290
391.042,2.290
391.274,2.290
391.507,2.296
391.739,2.299
391.972,2.293
392.205,2.294
392.439,2.306
392.673,2.327
392.907,2.343
393.142,2.355
393.377,2.362
393.612,2.373
393.848,2.378
394.084,2.389
394.320,2.391
394.557,2.401
394.794,2.406
395.031,2.418
395.269,2.429
395.507,2.442
395.745,2.443
395.983,2.443
396.222,2.448
396.461,2.466
396.700,2.492
396.940,2.508
397.180,2.511
397.420,2.499
397.660,2.491
397.901,2.486
398.142,2.489
398.383,2.490
398.625,2.491
398.866,2.503
399.108,2.527
399.351,2.563
399.593,2.574
399.836,2.570
400.079,2.554
400.322,2.548
400.566,2.542
400.809,2.541
401.053,2.545
401.298,2.556
401.542,2.571
401.787,2.588
402.031,2.601
402.277,2.612
402.522,2.617
402.767,2.626
403.013,2.624
403.259,2.630
403.505,2.630
403.752,2.632
403.998,2.631
404.245,2.648
404.492,2.671
404.739,2.690
404.986,2.695
405.234,2.701
405.482,2.702
405.730,2.703
405.978,2.706
406.226,2.709
406.475,2.700
406.723,2.692
406.972,2.699
407.221,2.720
407.470,2.730
407.720,2.733
407.969,2.724
408.219,2.732
408.469,2.745
408.719,2.765
408.969,2.772
409.219,2.782
409.470,2.793
409.720,2.808
409.971,2.821
410.222,2.834
410.473,2.838
410.724,2.832
410.976,2.828
411.227,2.837
411.479,2.845
411.731,2.852
411.983,2.846
412.235,2.849
412.487,2.846
412.740,2.854
412.992,2.856
413.245,2.866
413.497,2.867
413.750,2.871
414.003,2.866
414.257,2.862
414.510,2.857
414.763,2.867
415.017,2.878
415.270,2.890
415.524,2.894
415.778,2.897
416.032,2.898
416.286,2.908
416.540,2.913
416.794,2.921
417.049,2.919
417.303,2.920
417.558,2.921
417.812,2.925
418.067,2.927
418.322,2.926
418.577,2.924
418.832,2.918
419.088,2.906
419.343,2.905
419.598,2.900
419.854,2.910
420.109,2.915
420.365,2.936
420.621,2.942
420.876,2.950
421.132,2.947
421.388,2.952
421.645,2.950
421.901,2.954
422.157,2.954
422.413,2.963
422.670,2.969
422.926,2.978
423.183,2.978
423.439,2.993
423.696,3.012
423.953,3.052
424.210,3.086
424.467,3.112
424.724,3.122
424.981,3.125
425.238,3.136
425.495,3.165
425.753,3.198
426.010,3.233
426.267,3.258
426.525,3.301
426.782,3.341
427.040,3.392
427.298,3.442
427.555,3.505
427.813,3.559
428.071,3.612
428.329,3.660
428.587,3.716
428.845,3.779
429.103,3.850
429.361,3.923
429.619,4.000
429.878,4.080
430.136,4.176
430.394,4.267
430.653,4.386
430.911,4.512
431.170,4.655
431.428,4.779
431.687,4.907
431.946,5.032
432.204,5.175
432.463,5.321
432.722,5.474
432.981,5.630
433.240,5.801
433.499,5.987
433.758,6.196
434.017,6.399
434.276,6.612
434.535,6.816
434.794,7.040
435.053,7.268
435.312,7.522
435.572,7.780
435.831,8.061
436.090,8.349
436.350,8.660
436.609,8.966
436.869,9.283
437.128,9.600
437.388,9.938
437.647,10.290
437.907,10.678
438.166,11.079
438.426,11.485
438.686,11.887
438.946,12.319
439.205,12.778
439.465,13.272
439.725,13.790
439.985,14.331
440.245,14.871
440.505,15.427
440.765,15.989
441.025,16.569
441.285,17.159
441.545,17.779
441.805,18.441
442.065,19.128
442.325,19.853
442.585,20.612
442.846,21.419
443.106,22.267
443.366,23.158
443.626,24.090
443.887,25.069
444.147,26.091
444.407,27.157
444.668,28.268
444.928,29.427
445.189,30.656
445.449,31.944
445.710,33.299
445.970,34.710
446.231,36.202
446.491,37.767
446.752,39.391
447.012,41.060
447.273,42.793
447.534,44.586
447.794,46.430
448.055,48.331
448.316,50.320
448.577,52.404
448.837,54.553
449.098,56.748
449.359,58.967
449.620,61.193
449.881,63.416
450.142,65.648
450.403,67.905
450.664,70.198
450.924,72.483
451.185,74.769
451.446,77.000
451.707,79.177
451.969,81.252
452.230,83.144
452.491,84.784
452.752,86.112
453.013,87.215
453.274,88.149
453.535,88.983
453.796,89.702
454.058,90.329
454.319,90.856
454.580,91.296
454.841,91.641
455.103,91.904
455.364,92.103
455.625,92.249
455.887,92.344
456.148,92.393
456.409,92.395
456.671,92.348
456.932,92.243
457.194,92.080
457.455,91.870
457.716,91.615
457.978,91.313
458.239,90.943
458.501,90.517
458.763,90.020
459.024,89.447
459.286,88.792
459.547,88.048
459.809,87.207
460.071,86.217
460.332,85.046
460.594,83.670
460.856,82.116
461.117,80.438
461.379,78.708
461.641,76.967
461.903,75.250
462.164,73.562
462.426,71.887
462.688,70.218
462.950,68.573
463.212,66.987
463.474,65.444
463.736,63.953
463.998,62.521
464.260,61.174
464.522,59.895
464.784,58.679
465.046,57.504
465.308,56.389
465.570,55.326
465.832,54.319
466.094,53.327
466.356,52.358
466.618,51.420
466.880,50.509
467.142,49.633
467.405,48.784
467.667,47.981
467.929,47.197
468.191,46.440
468.454,45.673
468.716,44.914
468.978,44.111
469.241,43.301
469.503,42.478
469.765,41.697
470.028,40.929
470.290,40.176
470.552,39.410
470.815,38.655
471.077,37.887
471.340,37.138
471.602,36.377
471.865,35.629
472.128,34.866
472.390,34.124
472.653,33.374
472.915,32.629
473.178,31.874
473.441,31.124
473.703,30.371
473.966,29.611
474.229,28.851
474.492,28.102
474.755,27.355
475.017,26.632
475.280,25.923
475.543,25.243
475.806,24.570
476.069,23.895
476.332,23.229
476.595,22.577
476.858,21.938
477.121,21.315
477.384,20.707
477.647,20.145
477.910,19.599
478.173,19.071
478.436,18.545
478.699,18.052
478.962,17.581
479.226,17.136
479.489,16.689
479.752,16.261
480.015,15.847
480.279,15.454
480.542,15.060
480.805,14.674
481.069,14.290
481.332,13.933
481.595,13.600
481.859,13.310
482.122,13.021
482.386,12.726
482.649,12.414
482.913,12.109
483.177,11.808
483.440,11.520
483.704,11.250
483.967,11.005
484.231,10.762
484.495,10.531
484.759,10.301
485.022,10.075
485.286,9.845
485.550,9.620
485.814,9.372
486.078,9.135
486.342,8.900
486.606,8.709
486.869,8.513
487.133,8.330
487.397,8.142
487.662,7.950
487.926,7.740
488.190,7.540
488.454,7.343
488.718,7.166
488.982,6.973
489.246,6.796
489.511,6.612
489.775,6.440
490.039,6.261
490.304,6.093
490.568,5.920
490.832,5.770
491.097,5.626
491.361,5.494
491.626,5.348
491.890,5.207
492.155,5.071
492.419,4.955
492.684,4.824
492.949,4.683
493.213,4.544
493.478,4.436
493.743,4.329
494.008,4.208
494.272,4.077
494.537,3.975
494.802,3.888
495.067,3.819
495.332,3.743
495.597,3.673
495.862,3.588
496.127,3.512
496.392,3.429
496.657,3.351
496.922,3.270
497.187,3.205
497.452,3.151
497.718,3.112
497.983,3.062
498.248,3.006
498.513,2.941
498.779,2.903
499.044,2.869
499.310,2.827
499.575,2.765
499.841,2.716
500.106,2.672
500.372,2.630
500.637,2.589
500.903,2.566
501.168,2.544
501.434,2.509
501.700,2.455
501.966,2.414
502.231,2.382
502.497,2.361
502.763,2.333
503.029,2.304
503.295,2.277
503.561,2.253
503.827,2.236
504.093,2.218
504.359,2.200
504.625,2.182
504.891,2.162
505.157,2.145
505.423,2.118
505.690,2.089
505.956,2.060
506.222,2.049
506.489,2.056
506.755,2.067
507.021,2.066
507.288,2.059
507.554,2.040
507.821,2.026
508.087,2.009
508.354,2.008
508.621,1.997
508.887,1.977
509.154,1.958
509.421,1.947
509.687,1.934
509.954,1.913
510.221,1.892
510.488,1.889
510.755,1.893
511.022,1.898
511.289,1.883
511.556,1.867
511.823,1.853
512.090,1.857
512.357,1.854
512.624,1.847
512.891,1.835
513.159,1.826
513.426,1.818
513.693,1.811
513.960,1.805
514.228,1.801
514.495,1.798
514.763,1.794
515.030,1.785
515.298,1.774
515.565,1.770
515.833,1.769
516.100,1.769
516.368,1.766
516.636,1.761
516.904,1.758
517.171,1.748
517.439,1.745
517.707,1.737
517.975,1.733
518.243,1.735
518.511,1.736
518.779,1.725
519.047,1.716
519.315,1.711
519.583,1.709
519.851,1.695
520.119,1.683
520.387,1.677
520.656,1.677
520.924,1.677
521.192,1.682
521.461,1.687
521.729,1.692
521.997,1.696
522.266,1.696
522.534,1.694
522.803,1.695
523.071,1.694
523.340,1.682
523.609,1.665
523.877,1.651
524.146,1.649
524.415,1.654
524.684,1.662
524.952,1.661
525.221,1.659
525.490,1.663
525.759,1.670
526.028,1.671
526.297,1.657
526.566,1.646
526.835,1.638
527.104,1.640
527.373,1.647
527.642,1.650
527.912,1.645
528.181,1.634
528.450,1.628
528.719,1.629
528.989,1.642
529.258,1.655
529.528,1.658
529.797,1.646
530.067,1.639
530.336,1.636
530.606,1.635
530.875,1.623
531.145,1.618
531.414,1.618
531.684,1.625
531.954,1.626
532.224,1.620
532.493,1.602
532.763,1.590
533.033,1.589
533.303,1.602
533.573,1.615
533.843,1.613
534.113,1.606
534.383,1.593
534.653,1.592
534.923,1.593
535.193,1.598
535.463,1.608
535.733,1.621
536.004,1.629
536.274,1.631
536.544,1.620
536.814,1.603
537.085,1.589
537.355,1.592
537.626,1.610
537.896,1.627
538.166,1.634
538.437,1.634
538.707,1.627
538.978,1.623
539.249,1.627
539.519,1.630
539.790,1.622
540.061,1.611
540.331,1.612
540.602,1.627
540.873,1.640
541.144,1.648
541.414,1.647
541.685,1.644
541.956,1.641
542.227,1.640
542.498,1.634
542.769,1.624
543.040,1.622
543.311,1.636
543.582,1.653
543.853,1.661
544.124,1.664
544.396,1.668
544.667,1.671
544.938,1.666
545.209,1.640
545.480,1.620
545.752,1.609
546.023,1.621
546.294,1.621
546.566,1.612
546.837,1.597
547.109,1.589
547.380,1.585
547.652,1.582
547.923,1.580
548.195,1.588
548.466,1.605
548.738,1.621
549.009,1.617
549.281,1.603
549.553,1.585
549.824,1.565
550.096,1.551
550.368,1.547
550.640,1.558
550.911,1.573
551.183,1.593
551.455,1.616
551.727,1.631
551.999,1.624
552.271,1.601
552.543,1.580
552.815,1.570
553.087,1.580
553.359,1.596
553.631,1.609
553.903,1.610
554.175,1.607
554.447,1.607
554.719,1.607
554.991,1.606
555.263,1.602
555.535,1.594
555.808,1.585
556.080,1.576
556.352,1.573
556.624,1.575
556.897,1.576
557.169,1.577
557.441,1.573
557.714,1.568
557.986,1.567
558.258,1.559
558.531,1.563
558.803,1.564
559.076,1.573
559.348,1.568
559.621,1.559
559.893,1.560
560.166,1.565
560.438,1.565
560.711,1.556
560.983,1.550
561.256,1.551
561.528,1.559
561.801,1.568
562.074,1.580
562.346,1.590
562.619,1.602
562.892,1.603
563.164,1.597
563.437,1.592
563.710,1.590
563.983,1.580
564.255,1.566
564.528,1.566
564.801,1.580
565.074,1.591
565.346,1.583
565.619,1.577
565.892,1.581
566.165,1.579
566.438,1.564
566.711,1.543
566.984,1.536
567.257,1.536
567.529,1.545
567.802,1.563
568.075,1.583
568.348,1.585
568.621,1.578
568.894,1.568
569.167,1.564
569.440,1.555
569.713,1.538
569.986,1.533
570.259,1.531
570.532,1.546
570.805,1.556
571.078,1.563
571.351,1.566
571.625,1.570
571.898,1.568
572.171,1.557
572.444,1.544
572.717,1.549
572.990,1.561
573.263,1.562
573.536,1.548
573.809,1.527
574.083,1.518
574.356,1.522
574.629,1.545
574.902,1.559
575.175,1.561
575.448,1.543
575.721,1.530
575.995,1.527
576.268,1.527
576.541,1.539
576.814,1.548
577.087,1.560
577.361,1.560
577.634,1.555
577.907,1.536
578.180,1.515
578.453,1.508
578.727,1.514
579.000,1.524
579.273,1.534
579.546,1.552
579.820,1.574
580.093,1.582
580.366,1.569
580.639,1.542
580.913,1.525
581.186,1.522
581.459,1.523
581.732,1.513
582.005,1.507
582.279,1.508
582.552,1.518
582.825,1.523
583.098,1.527
583.372,1.531
583.645,1.539
583.918,1.550
584.191,1.555
584.464,1.551
584.738,1.549
585.011,1.542
585.284,1.534
585.557,1.523
585.831,1.526
586.104,1.545
586.377,1.573
586.650,1.590
586.923,1.592
587.196,1.582
587.470,1.565
587.743,1.553
588.016,1.545
588.289,1.550
588.562,1.562
588.835,1.566
589.109,1.555
589.382,1.537
589.655,1.522
589.928,1.517
590.201,1.517
590.474,1.531
590.747,1.550
591.020,1.566
591.293,1.568
591.567,1.562
591.840,1.550
592.113,1.535
592.386,1.518
592.659,1.505
592.932,1.505
593.205,1.518
593.478,1.528
593.751,1.526
594.024,1.520
594.297,1.512
594.570,1.509
594.843,1.515
595.116,1.528
595.389,1.536
595.662,1.530
595.934,1.527
596.207,1.532
596.480,1.548
596.753,1.560
597.026,1.563
597.299,1.555
597.572,1.549
597.844,1.542
598.117,1.532
598.390,1.523
598.663,1.521
598.936,1.528
599.208,1.537
599.481,1.547
599.754,1.551
600.026,1.531
600.299,1.512
600.572,1.501
600.844,1.503
601.117,1.500
601.390,1.493
601.662,1.490
601.935,1.488
602.207,1.487
602.480,1.491
602.752,1.493
603.025,1.488
603.297,1.486
603.570,1.500
603.842,1.523
604.115,1.538
604.387,1.549
604.660,1.541
604.932,1.536
605.204,1.536
605.477,1.549
605.749,1.567
606.021,1.579
606.294,1.583
606.566,1.571
606.838,1.565
607.110,1.565
607.383,1.572
607.655,1.576
607.927,1.583
608.199,1.595
608.471,1.603
608.743,1.597
609.015,1.587
609.287,1.579
609.559,1.575
609.831,1.575
610.103,1.575
610.375,1.569
610.647,1.557
610.919,1.543
611.191,1.543
611.463,1.549
611.735,1.551
612.007,1.542
612.278,1.531
612.550,1.527
612.822,1.537
613.094,1.545
613.365,1.546
613.637,1.549
613.909,1.551
614.180,1.557
614.452,1.550
614.723,1.536
614.995,1.523
615.266,1.521
615.538,1.536
615.809,1.552
616.081,1.551
616.352,1.535
616.623,1.522
616.895,1.517
617.166,1.513
617.437,1.509
617.709,1.513
617.980,1.526
618.251,1.539
618.522,1.551
618.793,1.567
619.065,1.587
619.336,1.586
619.607,1.565
619.878,1.551
620.149,1.556
620.420,1.563
620.691,1.552
620.962,1.546
621.232,1.551
621.503,1.550
621.774,1.543
622.045,1.539
622.316,1.553
622.586,1.574
622.857,1.591
623.128,1.595
623.398,1.586
623.669,1.571
623.940,1.550
624.210,1.530
624.481,1.528
624.751,1.534
625.021,1.536
625.292,1.526
625.562,1.524
625.833,1.526
626.103,1.524
626.373,1.513
626.643,1.509
626.914,1.512
627.184,1.523
627.454,1.529
627.724,1.527
627.994,1.523
628.264,1.521
628.534,1.511
628.804,1.508
629.074,1.513
629.344,1.524
629.614,1.526
629.884,1.514
630.154,1.497
630.424,1.484
630.693,1.474
630.963,1.467
631.233,1.461
631.502,1.463
631.772,1.479
632.041,1.499
632.311,1.512
632.581,1.518
632.850,1.517
633.119,1.507
633.389,1.489
633.658,1.477
633.928,1.481
634.197,1.499
634.466,1.524
634.735,1.538
635.004,1.531
635.274,1.514
635.543,1.501
635.812,1.503
636.081,1.508
636.350,1.510
636.619,1.508
636.888,1.508
637.157,1.510
637.426,1.517
637.694,1.517
637.963,1.509
638.232,1.496
638.501,1.489
638.769,1.495
639.038,1.508
639.307,1.523
639.575,1.533
639.844,1.526
640.112,1.513
640.381,1.495
640.649,1.488
640.917,1.490
641.186,1.494
641.454,1.506
641.722,1.512
641.991,1.517
642.259,1.504
642.527,1.491
642.795,1.482
643.063,1.475
643.331,1.473
643.599,1.472
643.867,1.481
644.135,1.486
644.403,1.495
644.671,1.499
644.939,1.511
645.206,1.521
645.474,1.533
645.742,1.529
646.009,1.512
646.277,1.501
646.545,1.503
646.812,1.524
647.080,1.544
647.347,1.555
647.615,1.547
647.882,1.523
648.149,1.499
648.417,1.482
648.684,1.487
648.951,1.506
649.219,1.527
649.486,1.533
649.753,1.522
650.020,1.501
650.287,1.485
650.554,1.473
650.821,1.470
651.088,1.469
651.355,1.482
651.622,1.490
651.889,1.496
652.155,1.489
652.422,1.486
652.689,1.493
652.956,1.501
653.222,1.517
653.489,1.543
653.755,1.561
654.022,1.556
654.288,1.531
654.555,1.515
654.821,1.516
655.088,1.527
655.354,1.538
655.620,1.549
655.887,1.548
656.153,1.544
656.419,1.531
656.685,1.525
656.951,1.520
657.217,1.516
657.483,1.507
657.749,1.497
658.015,1.497
658.281,1.500
658.547,1.501
658.813,1.493
659.079,1.485
659.345,1.477
659.610,1.475
659.876,1.475
660.142,1.480
660.407,1.485
660.673,1.493
660.939,1.501
661.204,1.501
661.470,1.496
661.735,1.492
662.000,1.492
662.266,1.491
662.531,1.489
662.796,1.490
663.062,1.491
663.327,1.486
663.592,1.484
663.857,1.483
664.122,1.484
664.388,1.481
664.653,1.485
664.918,1.497
665.183,1.506
665.448,1.512
665.712,1.512
665.977,1.518
666.242,1.516
666.507,1.497
666.772,1.476
667.037,1.462
667.301,1.465
667.566,1.468
667.831,1.473
668.095,1.476
668.360,1.480
668.624,1.476
668.889,1.481
669.153,1.482
669.418,1.488
669.682,1.488
669.946,1.495
670.211,1.508
670.475,1.521
670.739,1.535
671.004,1.551
671.268,1.580
671.532,1.611
671.796,1.605
672.060,1.585
672.324,1.561
672.588,1.569
672.852,1.582
673.116,1.619
673.380,1.652
673.644,1.624
673.908,1.563
674.172,1.502
674.436,1.500
674.700,1.504
674.963,1.509
675.227,1.512
675.491,1.504
675.754,1.493
676.018,1.483
676.282,1.493
676.545,1.499
676.809,1.495
677.072,1.483
677.336,1.475
677.599,1.477
677.863,1.477
678.126,1.482
678.389,1.495
678.653,1.508
678.916,1.512
679.179,1.500
679.442,1.493
679.706,1.496
679.969,1.500
680.232,1.505
680.495,1.512
680.758,1.526
681.021,1.528
681.284,1.515
681.547,1.500
681.810,1.502
682.073,1.519
682.336,1.531
682.599,1.527
682.862,1.519
683.125,1.521
683.388,1.532
683.651,1.531
683.913,1.521
684.176,1.502
684.439,1.486
684.702,1.472
684.964,1.463
685.227,1.464
685.490,1.480
685.752,1.507
686.015,1.518
686.277,1.514
686.540,1.497
686.802,1.488
687.065,1.488
687.327,1.495
687.590,1.496
687.852,1.487
688.115,1.470
688.377,1.461
688.639,1.462
688.902,1.468
689.164,1.474
689.426,1.490
689.689,1.505
689.951,1.509
690.213,1.502
690.475,1.496
690.737,1.495
691.000,1.489
691.262,1.484
691.524,1.491
691.786,1.508
692.048,1.526
692.310,1.524
692.572,1.502
692.834,1.477
693.096,1.472
693.358,1.489
693.620,1.513
693.882,1.531
694.144,1.533
694.406,1.518
694.668,1.502
694.930,1.495
695.192,1.493
695.453,1.495
695.715,1.497
695.977,1.495
696.239,1.485
696.501,1.479
696.762,1.490
697.024,1.502
697.286,1.499
697.548,1.491
697.809,1.487
698.071,1.486
698.333,1.482
698.594,1.480
698.856,1.485
699.118,1.493
699.379,1.498
699.641,1.503
699.902,1.509
700.164,1.511
700.426,1.509
700.687,1.500
700.949,1.497
701.210,1.493
701.472,1.489
701.733,1.480
701.995,1.477
702.256,1.476
702.518,1.475
702.779,1.471
703.041,1.484
703.302,1.505
703.563,1.511
703.825,1.499
704.086,1.484
704.348,1.481
704.609,1.489
704.871,1.505
705.132,1.524
705.393,1.521
705.655,1.508
705.916,1.495
706.177,1.493
706.439,1.492
706.700,1.487
706.961,1.484
707.223,1.486
707.484,1.474
707.745,1.462
708.007,1.449
708.268,1.439
708.529,1.425
708.790,1.407
709.052,1.396
709.313,1.397
709.574,1.406
709.835,1.413
710.097,1.409
710.358,1.395
710.619,1.382
710.881,1.372
711.142,1.365
711.403,1.356
711.664,1.351
711.926,1.341
712.187,1.343
712.448,1.351
712.709,1.367
712.970,1.378
713.232,1.384
713.493,1.390
713.754,1.391
714.015,1.393
714.277,1.395
714.538,1.404
714.799,1.416
715.060,1.419
715.322,1.415
715.583,1.405
715.844,1.396
716.105,1.385
716.367,1.380
716.628,1.383
716.889,1.388
717.150,1.385
717.411,1.377
717.673,1.373
717.934,1.377
718.195,1.382
718.457,1.377
718.718,1.365
718.979,1.358
719.240,1.363
719.502,1.377
719.763,1.391
720.024,1.398
720.286,1.396
720.547,1.386
720.808,1.379
721.069,1.377
721.331,1.382
721.592,1.394
721.853,1.400
722.115,1.403
722.376,1.404
722.638,1.402
722.899,1.399
723.160,1.389
723.422,1.378
723.683,1.371
723.944,1.375
724.206,1.382
724.467,1.382
724.729,1.378
724.990,1.384
725.252,1.395
725.513,1.391
725.775,1.375
726.036,1.362
726.298,1.360
726.559,1.366
726.821,1.367
727.082,1.366
727.344,1.364
727.605,1.365
727.867,1.365
728.128,1.369
728.390,1.371
728.652,1.380
728.913,1.393
729.175,1.400
729.436,1.399
729.698,1.396
729.960,1.390
730.221,1.384
730.483,1.368
730.745,1.362
731.007,1.360
731.268,1.366
731.530,1.368
731.792,1.375
732.054,1.382
732.315,1.386
732.577,1.384
732.839,1.374
733.101,1.365
733.363,1.358
733.625,1.360
733.887,1.365
734.149,1.370
734.411,1.375
734.673,1.378
734.935,1.379
735.197,1.375
735.459,1.379
735.721,1.382
735.983,1.379
736.245,1.365
736.507,1.362
736.769,1.374
737.031,1.385
737.293,1.380
737.555,1.364
737.818,1.351
738.080,1.344
738.342,1.345
738.604,1.347
738.867,1.351
739.129,1.350
739.391,1.348
739.654,1.347
739.916,1.347
740.178,1.356
740.441,1.370
740.703,1.379
740.966,1.376
741.228,1.367
741.491,1.358
741.753,1.360
742.016,1.361
742.278,1.365
742.541,1.365
742.804,1.368
743.066,1.375
743.329,1.379
743.592,1.375
743.854,1.374
744.117,1.379
744.380,1.386
744.643,1.381
744.905,1.371
745.168,1.362
745.431,1.356
745.694,1.351
745.957,1.348
746.220,1.348
746.483,1.347
746.746,1.347
747.009,1.358
747.272,1.382
747.535,1.404
747.798,1.410
748.061,1.398
