Wavelength (nm),Intensity B35.3,,D:/Lab/LED Spectras v2/Spectrometer Data (Blue 25.3-37).sp,,,B35.3,
379.792,1.962,,2018-06-14 15:23:17,,Integration Time,136 ms,
380.000,1.957,,Analyze Light,,Number of Scans to Average,25,
380.209,1.949,,,,Smoothing,1,
380.418,1.958
380.627,1.972
380.837,1.984
381.048,1.986
381.259,1.985
381.471,1.982
381.683,1.986
381.896,1.993
382.110,1.996
382.324,2.007
382.538,2.029
382.753,2.048
382.969,2.045
383.185,2.032
383.402,2.022
383.619,2.029
383.837,2.045
384.055,2.069
384.274,2.087
384.493,2.095
384.712,2.094
384.932,2.092
385.153,2.095
385.374,2.103
385.596,2.112
385.818,2.127
386.040,2.144
386.263,2.162
386.487,2.168
386.710,2.169
386.935,2.159
387.159,2.153
387.385,2.145
387.610,2.145
387.836,2.151
388.063,2.159
388.289,2.165
388.517,2.168
388.744,2.170
388.972,2.180
389.201,2.185
389.430,2.194
389.659,2.200
389.889,2.211
390.119,2.219
390.349,2.223
390.580,2.227
390.811,2.231
391.042,2.236
391.274,2.243
391.507,2.253
391.739,2.252
391.972,2.246
392.205,2.247
392.439,2.260
392.673,2.274
392.907,2.285
393.142,2.299
393.377,2.313
393.612,2.328
393.848,2.332
394.084,2.335
394.320,2.332
394.557,2.340
394.794,2.347
395.031,2.359
395.269,2.365
395.507,2.373
395.745,2.374
395.983,2.378
396.222,2.384
396.461,2.403
396.700,2.424
396.940,2.437
397.180,2.440
397.420,2.436
397.660,2.435
397.901,2.432
398.142,2.434
398.383,2.432
398.625,2.430
398.866,2.438
399.108,2.461
399.351,2.493
399.593,2.502
399.836,2.496
400.079,2.478
400.322,2.472
400.566,2.467
400.809,2.469
401.053,2.473
401.298,2.481
401.542,2.494
401.787,2.512
402.031,2.526
402.277,2.539
402.522,2.543
402.767,2.549
403.013,2.545
403.259,2.547
403.505,2.547
403.752,2.552
403.998,2.556
404.245,2.574
404.492,2.593
404.739,2.609
404.986,2.612
405.234,2.617
405.482,2.618
405.730,2.615
405.978,2.613
406.226,2.607
406.475,2.600
406.723,2.596
406.972,2.607
407.221,2.624
407.470,2.637
407.720,2.651
407.969,2.651
408.219,2.659
408.469,2.667
408.719,2.683
408.969,2.690
409.219,2.698
409.470,2.707
409.720,2.718
409.971,2.726
410.222,2.741
410.473,2.745
410.724,2.743
410.976,2.740
411.227,2.750
411.479,2.761
411.731,2.773
411.983,2.775
412.235,2.778
412.487,2.773
412.740,2.779
412.992,2.786
413.245,2.799
413.497,2.803
413.750,2.804
414.003,2.796
414.257,2.790
414.510,2.788
414.763,2.799
415.017,2.808
415.270,2.814
415.524,2.814
415.778,2.818
416.032,2.828
416.286,2.846
416.540,2.860
416.794,2.873
417.049,2.870
417.303,2.871
417.558,2.873
417.812,2.876
418.067,2.874
418.322,2.877
418.577,2.873
418.832,2.871
419.088,2.859
419.343,2.863
419.598,2.866
419.854,2.879
420.109,2.885
420.365,2.899
420.621,2.904
420.876,2.915
421.132,2.921
421.388,2.926
421.645,2.925
421.901,2.926
422.157,2.930
422.413,2.936
422.670,2.935
422.926,2.937
423.183,2.933
423.439,2.943
423.696,2.954
423.953,2.990
424.210,3.026
424.467,3.049
424.724,3.055
424.981,3.047
425.238,3.053
425.495,3.077
425.753,3.109
426.010,3.141
426.267,3.165
426.525,3.202
426.782,3.233
427.040,3.271
427.298,3.310
427.555,3.363
427.813,3.408
428.071,3.454
428.329,3.494
428.587,3.536
428.845,3.578
429.103,3.631
429.361,3.690
429.619,3.755
429.878,3.818
430.136,3.901
430.394,3.985
430.653,4.097
430.911,4.206
431.170,4.324
431.428,4.424
431.687,4.531
431.946,4.643
432.204,4.772
432.463,4.906
432.722,5.045
432.981,5.180
433.240,5.334
433.499,5.495
433.758,5.680
434.017,5.853
434.276,6.039
434.535,6.219
434.794,6.418
435.053,6.623
435.312,6.845
435.572,7.074
435.831,7.320
436.090,7.594
436.350,7.882
436.609,8.173
436.869,8.463
437.128,8.757
437.388,9.072
437.647,9.395
437.907,9.742
438.166,10.089
438.426,10.445
438.686,10.816
438.946,11.209
439.205,11.620
439.465,12.050
439.725,12.502
439.985,12.975
440.245,13.443
440.505,13.928
440.765,14.409
441.025,14.902
441.285,15.406
441.545,15.939
441.805,16.497
442.065,17.071
442.325,17.652
442.585,18.274
442.846,18.914
443.106,19.614
443.366,20.327
443.626,21.058
443.887,21.807
444.147,22.589
444.407,23.418
444.668,24.280
444.928,25.163
445.189,26.094
445.449,27.063
445.710,28.088
445.970,29.155
446.231,30.275
446.491,31.454
446.752,32.685
447.012,33.962
447.273,35.310
447.534,36.715
447.794,38.179
448.055,39.697
448.316,41.305
448.577,43.011
448.837,44.793
449.098,46.642
449.359,48.549
449.620,50.501
449.881,52.483
450.142,54.516
450.403,56.632
450.664,58.842
450.924,61.104
451.185,63.407
451.446,65.728
451.707,68.068
451.969,70.412
452.230,72.747
452.491,75.059
452.752,77.303
453.013,79.473
453.274,81.524
453.535,83.398
453.796,84.997
454.058,86.307
454.319,87.389
454.580,88.316
454.841,89.123
455.103,89.809
455.364,90.392
455.625,90.885
455.887,91.298
456.148,91.621
456.409,91.859
456.671,92.022
456.932,92.122
457.194,92.155
457.455,92.128
457.716,92.040
457.978,91.902
458.239,91.709
458.501,91.460
458.763,91.147
459.024,90.760
459.286,90.294
459.547,89.747
459.809,89.101
460.071,88.345
460.332,87.473
460.594,86.459
460.856,85.261
461.117,83.829
461.379,82.197
461.641,80.414
461.903,78.556
462.164,76.663
462.426,74.789
462.688,72.952
462.950,71.151
463.212,69.385
463.474,67.649
463.736,65.965
463.998,64.333
464.260,62.783
464.522,61.322
464.784,59.938
465.046,58.609
465.308,57.358
465.570,56.181
465.832,55.085
466.094,54.042
466.356,53.056
466.618,52.106
466.880,51.197
467.142,50.314
467.405,49.480
467.667,48.678
467.929,47.928
468.191,47.189
468.454,46.454
468.716,45.716
468.978,44.993
469.241,44.263
469.503,43.535
469.765,42.803
470.028,42.099
470.290,41.401
470.552,40.715
470.815,40.031
471.077,39.335
471.340,38.637
471.602,37.918
471.865,37.203
472.128,36.472
472.390,35.753
472.653,35.033
472.915,34.316
473.178,33.598
473.441,32.859
473.703,32.113
473.966,31.343
474.229,30.573
474.492,29.795
474.755,29.023
475.017,28.267
475.280,27.530
475.543,26.805
475.806,26.067
476.069,25.314
476.332,24.576
476.595,23.867
476.858,23.194
477.121,22.531
477.384,21.877
477.647,21.249
477.910,20.638
478.173,20.057
478.436,19.481
478.699,18.931
478.962,18.406
479.226,17.918
479.489,17.443
479.752,16.981
480.015,16.529
480.279,16.095
480.542,15.666
480.805,15.245
481.069,14.834
481.332,14.451
481.595,14.082
481.859,13.754
482.122,13.436
482.386,13.127
482.649,12.802
482.913,12.489
483.177,12.181
483.440,11.885
483.704,11.603
483.967,11.356
484.231,11.114
484.495,10.884
484.759,10.647
485.022,10.421
485.286,10.197
485.550,9.973
485.814,9.737
486.078,9.494
486.342,9.257
486.606,9.049
486.869,8.857
487.133,8.679
487.397,8.499
487.662,8.314
487.926,8.117
488.190,7.917
488.454,7.712
488.718,7.513
488.982,7.312
489.246,7.131
489.511,6.950
489.775,6.775
490.039,6.594
490.304,6.414
490.568,6.226
490.832,6.051
491.097,5.889
491.361,5.749
491.626,5.601
491.890,5.455
492.155,5.311
492.419,5.186
492.684,5.049
492.949,4.909
493.213,4.758
493.478,4.628
493.743,4.494
494.008,4.358
494.272,4.219
494.537,4.112
494.802,4.024
495.067,3.950
495.332,3.863
495.597,3.782
495.862,3.689
496.127,3.609
496.392,3.523
496.657,3.440
496.922,3.351
497.187,3.275
497.452,3.215
497.718,3.172
497.983,3.116
498.248,3.057
498.513,2.988
498.779,2.944
499.044,2.904
499.310,2.856
499.575,2.793
499.841,2.737
500.106,2.695
500.372,2.657
500.637,2.621
500.903,2.598
501.168,2.576
501.434,2.544
501.700,2.494
501.966,2.449
502.231,2.409
502.497,2.378
502.763,2.348
503.029,2.322
503.295,2.297
503.561,2.272
503.827,2.253
504.093,2.235
504.359,2.214
504.625,2.196
504.891,2.171
505.157,2.155
505.423,2.131
505.690,2.106
505.956,2.080
506.222,2.068
506.489,2.073
506.755,2.078
507.021,2.075
507.288,2.063
507.554,2.042
507.821,2.023
508.087,2.006
508.354,2.005
508.621,2.002
508.887,1.994
509.154,1.976
509.421,1.958
509.687,1.936
509.954,1.917
510.221,1.903
510.488,1.906
510.755,1.912
511.022,1.917
511.289,1.905
511.556,1.891
511.823,1.873
512.090,1.868
512.357,1.859
512.624,1.855
512.891,1.848
513.159,1.840
513.426,1.825
513.693,1.810
513.960,1.803
514.228,1.804
514.495,1.806
514.763,1.806
515.030,1.798
515.298,1.787
515.565,1.782
515.833,1.779
516.100,1.776
516.368,1.770
516.636,1.766
516.904,1.765
517.171,1.757
517.439,1.749
517.707,1.738
517.975,1.736
518.243,1.737
518.511,1.737
518.779,1.724
519.047,1.718
519.315,1.714
519.583,1.711
519.851,1.699
520.119,1.691
520.387,1.689
520.656,1.690
520.924,1.692
521.192,1.695
521.461,1.697
521.729,1.700
521.997,1.701
522.266,1.699
522.534,1.697
522.803,1.699
523.071,1.697
523.340,1.689
523.609,1.674
523.877,1.662
524.146,1.655
524.415,1.658
524.684,1.664
524.952,1.666
525.221,1.664
525.490,1.666
525.759,1.673
526.028,1.675
526.297,1.663
526.566,1.651
526.835,1.643
527.104,1.647
527.373,1.651
527.642,1.649
527.912,1.637
528.181,1.624
528.450,1.624
528.719,1.631
528.989,1.646
529.258,1.658
529.528,1.661
529.797,1.654
530.067,1.651
530.336,1.647
530.606,1.642
530.875,1.628
531.145,1.621
531.414,1.622
531.684,1.630
531.954,1.632
532.224,1.624
532.493,1.608
532.763,1.600
533.033,1.602
533.303,1.611
533.573,1.621
533.843,1.618
534.113,1.612
534.383,1.600
534.653,1.600
534.923,1.604
535.193,1.611
535.463,1.622
535.733,1.631
536.004,1.639
536.274,1.642
536.544,1.636
536.814,1.623
537.085,1.608
537.355,1.608
537.626,1.620
537.896,1.634
538.166,1.636
538.437,1.632
538.707,1.625
538.978,1.626
539.249,1.634
539.519,1.636
539.790,1.625
540.061,1.615
540.331,1.619
540.602,1.635
540.873,1.645
541.144,1.647
541.414,1.642
541.685,1.639
541.956,1.635
542.227,1.634
542.498,1.625
542.769,1.619
543.040,1.620
543.311,1.633
543.582,1.647
543.853,1.652
544.124,1.654
544.396,1.655
544.667,1.656
544.938,1.651
545.209,1.630
545.480,1.616
545.752,1.608
546.023,1.618
546.294,1.616
546.566,1.609
546.837,1.597
547.109,1.593
547.380,1.593
547.652,1.588
547.923,1.586
548.195,1.591
548.466,1.607
548.738,1.624
549.009,1.626
549.281,1.618
549.553,1.600
549.824,1.582
550.096,1.569
550.368,1.566
550.640,1.566
550.911,1.571
551.183,1.583
551.455,1.606
551.727,1.622
551.999,1.617
552.271,1.598
552.543,1.581
552.815,1.574
553.087,1.579
553.359,1.587
553.631,1.593
553.903,1.592
554.175,1.593
554.447,1.602
554.719,1.608
554.991,1.610
555.263,1.606
555.535,1.599
555.808,1.595
556.080,1.591
556.352,1.589
556.624,1.586
556.897,1.582
557.169,1.582
557.441,1.579
557.714,1.574
557.986,1.568
558.258,1.559
558.531,1.563
558.803,1.574
559.076,1.583
559.348,1.579
559.621,1.568
559.893,1.568
560.166,1.574
560.438,1.577
560.711,1.571
560.983,1.564
561.256,1.562
561.528,1.569
561.801,1.580
562.074,1.595
562.346,1.604
562.619,1.609
562.892,1.604
563.164,1.594
563.437,1.593
563.710,1.594
563.983,1.588
564.255,1.578
564.528,1.579
564.801,1.591
565.074,1.598
565.346,1.592
565.619,1.586
565.892,1.590
566.165,1.593
566.438,1.582
566.711,1.566
566.984,1.558
567.257,1.561
567.529,1.571
567.802,1.588
568.075,1.604
568.348,1.605
568.621,1.597
568.894,1.583
569.167,1.574
569.440,1.564
569.713,1.550
569.986,1.542
570.259,1.537
570.532,1.545
570.805,1.556
571.078,1.566
571.351,1.576
571.625,1.582
571.898,1.579
572.171,1.564
572.444,1.550
572.717,1.552
572.990,1.567
573.263,1.572
573.536,1.564
573.809,1.542
574.083,1.526
574.356,1.528
574.629,1.549
574.902,1.564
575.175,1.564
575.448,1.548
575.721,1.536
575.995,1.530
576.268,1.529
576.541,1.539
576.814,1.556
577.087,1.574
577.361,1.580
577.634,1.576
577.907,1.562
578.180,1.546
578.453,1.536
578.727,1.537
579.000,1.539
579.273,1.546
579.546,1.560
579.820,1.578
580.093,1.584
580.366,1.578
580.639,1.563
580.913,1.554
581.186,1.548
581.459,1.547
581.732,1.536
582.005,1.531
582.279,1.526
582.552,1.533
582.825,1.538
583.098,1.544
583.372,1.549
583.645,1.553
583.918,1.562
584.191,1.563
584.464,1.559
584.738,1.551
585.011,1.551
585.284,1.548
585.557,1.542
585.831,1.541
586.104,1.556
586.377,1.582
586.650,1.597
586.923,1.599
587.196,1.592
587.470,1.579
587.743,1.570
588.016,1.565
588.289,1.569
588.562,1.580
588.835,1.585
589.109,1.579
589.382,1.562
589.655,1.547
589.928,1.538
590.201,1.532
590.474,1.540
590.747,1.555
591.020,1.572
591.293,1.581
591.567,1.582
591.840,1.575
592.113,1.561
592.386,1.545
592.659,1.530
592.932,1.525
593.205,1.534
593.478,1.539
593.751,1.536
594.024,1.528
594.297,1.518
594.570,1.513
594.843,1.516
595.116,1.527
595.389,1.536
595.662,1.537
595.934,1.546
596.207,1.555
596.480,1.567
596.753,1.571
597.026,1.568
597.299,1.562
597.572,1.556
597.844,1.549
598.117,1.539
598.390,1.530
598.663,1.524
598.936,1.529
599.208,1.540
599.481,1.556
599.754,1.565
600.026,1.552
600.299,1.534
600.572,1.518
600.844,1.507
601.117,1.496
601.390,1.487
601.662,1.490
601.935,1.494
602.207,1.501
602.480,1.513
602.752,1.522
603.025,1.521
603.297,1.516
603.570,1.522
603.842,1.539
604.115,1.550
604.387,1.558
604.660,1.551
604.932,1.544
605.204,1.542
605.477,1.549
605.749,1.565
606.021,1.577
606.294,1.584
606.566,1.578
606.838,1.572
607.110,1.569
607.383,1.575
607.655,1.581
607.927,1.592
608.199,1.600
608.471,1.602
608.743,1.592
609.015,1.581
609.287,1.574
609.559,1.575
609.831,1.581
610.103,1.583
610.375,1.579
610.647,1.571
610.919,1.558
611.191,1.549
611.463,1.548
611.735,1.551
612.007,1.548
612.278,1.539
612.550,1.532
612.822,1.539
613.094,1.549
613.365,1.556
613.637,1.564
613.909,1.566
614.180,1.567
614.452,1.560
614.723,1.548
614.995,1.535
615.266,1.526
615.538,1.536
615.809,1.548
616.081,1.550
616.352,1.539
616.623,1.529
616.895,1.523
617.166,1.517
617.437,1.514
617.709,1.522
617.980,1.539
618.251,1.556
618.522,1.562
618.793,1.569
619.065,1.582
619.336,1.579
619.607,1.564
619.878,1.555
620.149,1.566
620.420,1.576
620.691,1.568
620.962,1.565
621.232,1.568
621.503,1.564
621.774,1.553
622.045,1.547
622.316,1.559
622.586,1.573
622.857,1.588
623.128,1.591
623.398,1.586
623.669,1.576
623.940,1.562
624.210,1.551
624.481,1.552
624.751,1.554
625.021,1.551
625.292,1.539
625.562,1.537
625.833,1.534
626.103,1.527
626.373,1.516
626.643,1.517
626.914,1.529
627.184,1.542
627.454,1.547
627.724,1.549
627.994,1.550
628.264,1.554
628.534,1.544
628.804,1.535
629.074,1.532
629.344,1.543
629.614,1.551
629.884,1.545
630.154,1.529
630.424,1.510
630.693,1.495
630.963,1.482
631.233,1.474
631.502,1.481
631.772,1.499
632.041,1.518
632.311,1.525
632.581,1.526
632.850,1.522
633.119,1.508
633.389,1.486
633.658,1.474
633.928,1.482
634.197,1.506
634.466,1.530
634.735,1.543
635.004,1.538
635.274,1.526
635.543,1.515
635.812,1.515
636.081,1.518
636.350,1.520
636.619,1.520
636.888,1.520
637.157,1.525
637.426,1.537
637.694,1.546
637.963,1.547
638.232,1.534
638.501,1.522
638.769,1.516
639.038,1.524
639.307,1.537
639.575,1.548
639.844,1.542
640.112,1.537
640.381,1.525
640.649,1.523
640.917,1.523
641.186,1.524
641.454,1.527
641.722,1.524
641.991,1.524
642.259,1.510
642.527,1.499
642.795,1.492
643.063,1.489
643.331,1.489
643.599,1.487
643.867,1.497
644.135,1.506
644.403,1.519
644.671,1.525
644.939,1.534
645.206,1.540
645.474,1.544
645.742,1.535
646.009,1.514
646.277,1.503
646.545,1.506
646.812,1.527
647.080,1.545
647.347,1.554
647.615,1.547
647.882,1.529
648.149,1.509
648.417,1.499
648.684,1.498
648.951,1.513
649.219,1.529
649.486,1.538
649.753,1.530
650.020,1.516
650.287,1.504
650.554,1.495
650.821,1.487
651.088,1.484
651.355,1.496
651.622,1.503
651.889,1.506
652.155,1.495
652.422,1.493
652.689,1.504
652.956,1.516
653.222,1.532
653.489,1.552
653.755,1.567
654.022,1.560
654.288,1.535
654.555,1.518
654.821,1.523
655.088,1.537
655.354,1.550
655.620,1.559
655.887,1.563
656.153,1.564
656.419,1.559
656.685,1.554
656.951,1.549
657.217,1.543
657.483,1.534
657.749,1.525
658.015,1.519
658.281,1.515
658.547,1.503
658.813,1.494
659.079,1.488
659.345,1.492
659.610,1.497
659.876,1.500
660.142,1.500
660.407,1.501
660.673,1.505
660.939,1.512
661.204,1.513
661.470,1.508
661.735,1.502
662.000,1.503
662.266,1.502
662.531,1.499
662.796,1.493
663.062,1.488
663.327,1.484
663.592,1.486
663.857,1.490
664.122,1.492
664.388,1.490
664.653,1.498
664.918,1.511
665.183,1.518
665.448,1.518
665.712,1.519
665.977,1.529
666.242,1.535
666.507,1.517
666.772,1.493
667.037,1.475
667.301,1.479
667.566,1.484
667.831,1.492
668.095,1.500
668.360,1.507
668.624,1.502
668.889,1.500
669.153,1.496
669.418,1.501
669.682,1.507
669.946,1.513
670.211,1.529
670.475,1.538
670.739,1.552
671.004,1.561
671.268,1.585
671.532,1.611
671.796,1.599
672.060,1.572
672.324,1.546
672.588,1.557
672.852,1.578
673.116,1.618
673.380,1.655
673.644,1.639
673.908,1.585
674.172,1.527
674.436,1.516
674.700,1.521
674.963,1.531
675.227,1.538
675.491,1.531
675.754,1.523
676.018,1.514
676.282,1.521
676.545,1.521
676.809,1.514
677.072,1.499
677.336,1.488
677.599,1.488
677.863,1.491
678.126,1.501
678.389,1.512
678.653,1.524
678.916,1.528
679.179,1.518
679.442,1.512
679.706,1.514
679.969,1.520
680.232,1.523
680.495,1.530
680.758,1.539
681.021,1.538
681.284,1.521
681.547,1.501
681.810,1.501
682.073,1.523
682.336,1.539
682.599,1.542
682.862,1.534
683.125,1.534
683.388,1.538
683.651,1.533
683.913,1.523
684.176,1.508
684.439,1.492
684.702,1.478
684.964,1.469
685.227,1.472
685.490,1.487
685.752,1.510
686.015,1.521
686.277,1.517
686.540,1.501
686.802,1.487
687.065,1.482
687.327,1.486
687.590,1.495
687.852,1.493
688.115,1.479
688.377,1.471
688.639,1.469
688.902,1.476
689.164,1.483
689.426,1.495
689.689,1.506
689.951,1.505
690.213,1.500
690.475,1.498
690.737,1.498
691.000,1.495
691.262,1.495
691.524,1.505
691.786,1.524
692.048,1.540
692.310,1.537
692.572,1.512
692.834,1.483
693.096,1.474
693.358,1.489
693.620,1.513
693.882,1.534
694.144,1.539
694.406,1.527
694.668,1.517
694.930,1.507
695.192,1.506
695.453,1.509
695.715,1.514
695.977,1.509
696.239,1.496
696.501,1.491
696.762,1.497
697.024,1.505
697.286,1.500
697.548,1.493
697.809,1.488
698.071,1.487
698.333,1.489
698.594,1.491
698.856,1.501
699.118,1.508
699.379,1.514
699.641,1.522
699.902,1.534
700.164,1.535
700.426,1.526
700.687,1.511
700.949,1.505
701.210,1.504
701.472,1.501
701.733,1.495
701.995,1.492
702.256,1.491
702.518,1.492
702.779,1.486
703.041,1.499
703.302,1.517
703.563,1.526
703.825,1.517
704.086,1.504
704.348,1.498
704.609,1.500
704.871,1.512
705.132,1.529
705.393,1.530
705.655,1.524
705.916,1.516
706.177,1.514
706.439,1.514
706.700,1.512
706.961,1.510
707.223,1.508
707.484,1.486
707.745,1.467
708.007,1.447
708.268,1.437
708.529,1.425
708.790,1.410
709.052,1.404
709.313,1.406
709.574,1.415
709.835,1.421
710.097,1.415
710.358,1.399
710.619,1.382
710.881,1.370
711.142,1.364
711.403,1.360
711.664,1.357
711.926,1.351
712.187,1.354
712.448,1.359
712.709,1.372
712.970,1.380
713.232,1.385
713.493,1.387
713.754,1.390
714.015,1.397
714.277,1.406
714.538,1.415
714.799,1.425
715.060,1.428
715.322,1.429
715.583,1.420
715.844,1.409
716.105,1.394
716.367,1.385
716.628,1.384
716.889,1.386
717.150,1.381
717.411,1.372
717.673,1.371
717.934,1.378
718.195,1.386
718.457,1.379
718.718,1.362
718.979,1.352
719.240,1.354
719.502,1.365
719.763,1.373
720.024,1.377
720.286,1.380
720.547,1.375
720.808,1.370
721.069,1.369
721.331,1.376
721.592,1.387
721.853,1.392
722.115,1.397
722.376,1.403
722.638,1.405
722.899,1.405
723.160,1.396
723.422,1.386
723.683,1.376
723.944,1.376
724.206,1.380
724.467,1.384
724.729,1.387
724.990,1.396
725.252,1.403
725.513,1.394
725.775,1.376
726.036,1.364
726.298,1.362
726.559,1.369
726.821,1.370
727.082,1.371
727.344,1.368
727.605,1.367
727.867,1.362
728.128,1.364
728.390,1.366
728.652,1.377
728.913,1.390
729.175,1.398
729.436,1.399
729.698,1.397
729.960,1.394
730.221,1.386
730.483,1.371
730.745,1.364
731.007,1.364
731.268,1.368
731.530,1.374
731.792,1.379
732.054,1.386
732.315,1.387
732.577,1.384
732.839,1.371
733.101,1.356
733.363,1.349
733.625,1.351
733.887,1.357
734.149,1.362
734.411,1.372
734.673,1.382
734.935,1.386
735.197,1.381
735.459,1.382
735.721,1.385
735.983,1.387
736.245,1.377
736.507,1.376
736.769,1.383
737.031,1.394
737.293,1.388
737.555,1.374
737.818,1.357
738.080,1.348
738.342,1.346
738.604,1.350
738.867,1.354
739.129,1.354
739.391,1.352
739.654,1.352
739.916,1.355
740.178,1.363
740.441,1.373
740.703,1.378
740.966,1.373
741.228,1.366
741.491,1.362
741.753,1.365
742.016,1.363
742.278,1.362
742.541,1.365
742.804,1.372
743.066,1.383
743.329,1.386
743.592,1.382
743.854,1.382
744.117,1.387
744.380,1.393
744.643,1.387
744.905,1.377
745.168,1.371
745.431,1.367
745.694,1.362
745.957,1.356
746.220,1.351
746.483,1.344
746.746,1.342
747.009,1.354
747.272,1.376
