Wavelength (nm),Intensity Source #88,,C:/Users/Brend/Desktop/LED Spectras v2/Spectrometer Data.sp,,,Source #88,
379.792,1.785,,2018-06-14 09:50:32,,Integration Time,121 ms,
380.000,1.786,,Analyze Light,,Number of Scans to Average,25,
380.209,1.788,,,,Smoothing,1,
380.418,1.798
380.627,1.807
380.837,1.817
381.048,1.823
381.259,1.826
381.471,1.827
381.683,1.828
381.896,1.832
382.110,1.834
382.324,1.842
382.538,1.857
382.753,1.868
382.969,1.863
383.185,1.853
383.402,1.845
383.619,1.851
383.837,1.861
384.055,1.881
384.274,1.898
384.493,1.910
384.712,1.917
384.932,1.924
385.153,1.932
385.374,1.940
385.596,1.947
385.818,1.958
386.040,1.972
386.263,1.986
386.487,1.996
386.710,2.000
386.935,1.994
387.159,1.990
387.385,1.985
387.610,1.983
387.836,1.981
388.063,1.986
388.289,1.996
388.517,2.007
388.744,2.014
388.972,2.026
389.201,2.032
389.430,2.037
389.659,2.039
389.889,2.046
390.119,2.055
390.349,2.062
390.580,2.070
390.811,2.075
391.042,2.080
391.274,2.087
391.507,2.095
391.739,2.096
391.972,2.091
392.205,2.093
392.439,2.103
392.673,2.117
392.907,2.126
393.142,2.135
393.377,2.145
393.612,2.161
393.848,2.172
394.084,2.179
394.320,2.181
394.557,2.184
394.794,2.189
395.031,2.201
395.269,2.216
395.507,2.229
395.745,2.229
395.983,2.229
396.222,2.238
396.461,2.259
396.700,2.282
396.940,2.297
397.180,2.303
397.420,2.300
397.660,2.293
397.901,2.285
398.142,2.287
398.383,2.290
398.625,2.293
398.866,2.301
399.108,2.319
399.351,2.345
399.593,2.352
399.836,2.349
400.079,2.339
400.322,2.335
400.566,2.334
400.809,2.334
401.053,2.337
401.298,2.345
401.542,2.357
401.787,2.371
402.031,2.382
402.277,2.390
402.522,2.391
402.767,2.396
403.013,2.401
403.259,2.414
403.505,2.419
403.752,2.426
403.998,2.428
404.245,2.437
404.492,2.446
404.739,2.458
404.986,2.466
405.234,2.478
405.482,2.484
405.730,2.487
405.978,2.488
406.226,2.486
406.475,2.479
406.723,2.481
406.972,2.493
407.221,2.509
407.470,2.517
407.720,2.524
407.969,2.522
408.219,2.530
408.469,2.538
408.719,2.550
408.969,2.552
409.219,2.560
409.470,2.569
409.720,2.584
409.971,2.595
410.222,2.609
410.473,2.615
410.724,2.612
410.976,2.608
411.227,2.618
411.479,2.630
411.731,2.643
411.983,2.647
412.235,2.649
412.487,2.644
412.740,2.646
412.992,2.652
413.245,2.662
413.497,2.666
413.750,2.669
414.003,2.668
414.257,2.665
414.510,2.662
414.763,2.671
415.017,2.687
415.270,2.702
415.524,2.708
415.778,2.710
416.032,2.711
416.286,2.719
416.540,2.727
416.794,2.738
417.049,2.743
417.303,2.746
417.558,2.744
417.812,2.748
418.067,2.749
418.322,2.753
418.577,2.752
418.832,2.752
419.088,2.746
419.343,2.747
419.598,2.744
419.854,2.753
420.109,2.760
420.365,2.776
420.621,2.783
420.876,2.791
421.132,2.793
421.388,2.795
421.645,2.792
421.901,2.795
422.157,2.799
422.413,2.810
422.670,2.814
422.926,2.821
423.183,2.817
423.439,2.826
423.696,2.838
423.953,2.868
424.210,2.891
424.467,2.905
424.724,2.907
424.981,2.907
425.238,2.912
425.495,2.928
425.753,2.949
426.010,2.977
426.267,3.000
426.525,3.037
426.782,3.072
427.040,3.118
427.298,3.160
427.555,3.211
427.813,3.252
428.071,3.288
428.329,3.320
428.587,3.361
428.845,3.409
429.103,3.468
429.361,3.527
429.619,3.589
429.878,3.647
430.136,3.717
430.394,3.792
430.653,3.887
430.911,3.986
431.170,4.085
431.428,4.178
431.687,4.276
431.946,4.378
432.204,4.491
432.463,4.612
432.722,4.748
432.981,4.888
433.240,5.041
433.499,5.198
433.758,5.368
434.017,5.523
434.276,5.690
434.535,5.857
434.794,6.051
435.053,6.249
435.312,6.464
435.572,6.674
435.831,6.901
436.090,7.138
436.350,7.395
436.609,7.656
436.869,7.927
437.128,8.204
437.388,8.491
437.647,8.791
437.907,9.120
438.166,9.456
438.426,9.801
438.686,10.140
438.946,10.507
439.205,10.899
439.465,11.316
439.725,11.744
439.985,12.189
440.245,12.639
440.505,13.105
440.765,13.583
441.025,14.085
441.285,14.592
441.545,15.123
441.805,15.667
442.065,16.241
442.325,16.835
442.585,17.463
442.846,18.123
443.106,18.819
443.366,19.545
443.626,20.299
443.887,21.075
444.147,21.880
444.407,22.718
444.668,23.592
444.928,24.507
445.189,25.468
445.449,26.465
445.710,27.518
445.970,28.614
446.231,29.771
446.491,30.975
446.752,32.240
447.012,33.560
447.273,34.936
447.534,36.356
447.794,37.823
448.055,39.332
448.316,40.911
448.577,42.568
448.837,44.319
449.098,46.136
449.359,48.002
449.620,49.888
449.881,51.806
450.142,53.760
450.403,55.773
450.664,57.851
450.924,59.984
451.185,62.165
451.446,64.372
451.707,66.602
451.969,68.841
452.230,71.078
452.491,73.311
452.752,75.491
453.013,77.623
453.274,79.671
453.535,81.630
453.796,83.402
454.058,84.929
454.319,86.187
454.580,87.236
454.841,88.128
455.103,88.921
455.364,89.603
455.625,90.215
455.887,90.733
456.148,91.182
456.409,91.541
456.671,91.825
456.932,92.047
457.194,92.209
457.455,92.319
457.716,92.379
457.978,92.394
458.239,92.370
458.501,92.303
458.763,92.189
459.024,92.027
459.286,91.814
459.547,91.547
459.809,91.207
460.071,90.783
460.332,90.291
460.594,89.733
460.856,89.114
461.117,88.410
461.379,87.617
461.641,86.711
461.903,85.631
462.164,84.330
462.426,82.786
462.688,81.082
462.950,79.298
463.212,77.498
463.474,75.673
463.736,73.848
463.998,72.053
464.260,70.310
464.522,68.618
464.784,66.973
465.046,65.379
465.308,63.842
465.570,62.366
465.832,60.957
466.094,59.606
466.356,58.314
466.618,57.060
466.880,55.846
467.142,54.670
467.405,53.552
467.667,52.502
467.929,51.502
468.191,50.553
468.454,49.632
468.716,48.729
468.978,47.836
469.241,46.949
469.503,46.101
469.765,45.294
470.028,44.525
470.290,43.771
470.552,43.029
470.815,42.296
471.077,41.579
471.340,40.850
471.602,40.133
471.865,39.408
472.128,38.704
472.390,37.996
472.653,37.297
472.915,36.586
473.178,35.868
473.441,35.135
473.703,34.390
473.966,33.642
474.229,32.882
474.492,32.125
474.755,31.358
475.017,30.613
475.280,29.868
475.543,29.144
475.806,28.401
476.069,27.661
476.332,26.910
476.595,26.180
476.858,25.450
477.121,24.737
477.384,24.035
477.647,23.364
477.910,22.705
478.173,22.054
478.436,21.410
478.699,20.789
478.962,20.199
479.226,19.645
479.489,19.102
479.752,18.571
480.015,18.038
480.279,17.519
480.542,17.018
480.805,16.542
481.069,16.080
481.332,15.632
481.595,15.202
481.859,14.814
482.122,14.437
482.386,14.062
482.649,13.682
482.913,13.326
483.177,12.988
483.440,12.662
483.704,12.345
483.967,12.061
484.231,11.797
484.495,11.553
484.759,11.305
485.022,11.047
485.286,10.779
485.550,10.515
485.814,10.254
486.078,10.007
486.342,9.768
486.606,9.559
486.869,9.354
487.133,9.154
487.397,8.949
487.662,8.752
487.926,8.550
488.190,8.354
488.454,8.153
488.718,7.958
488.982,7.747
489.246,7.550
489.511,7.355
489.775,7.179
490.039,7.002
490.304,6.830
490.568,6.650
490.832,6.475
491.097,6.299
491.361,6.139
491.626,5.975
491.890,5.822
492.155,5.667
492.419,5.529
492.684,5.380
492.949,5.235
493.213,5.087
493.478,4.956
493.743,4.819
494.008,4.668
494.272,4.512
494.537,4.383
494.802,4.274
495.067,4.176
495.332,4.070
495.597,3.973
495.862,3.870
496.127,3.778
496.392,3.681
496.657,3.591
496.922,3.492
497.187,3.408
497.452,3.333
497.718,3.280
497.983,3.215
498.248,3.139
498.513,3.051
498.779,2.982
499.044,2.920
499.310,2.858
499.575,2.793
499.841,2.745
500.106,2.699
500.372,2.651
500.637,2.599
500.903,2.563
501.168,2.532
501.434,2.494
501.700,2.446
501.966,2.406
502.231,2.368
502.497,2.331
502.763,2.290
503.029,2.251
503.295,2.217
503.561,2.187
503.827,2.165
504.093,2.149
504.359,2.132
504.625,2.113
504.891,2.084
505.157,2.059
505.423,2.028
505.690,2.000
505.956,1.974
506.222,1.959
506.489,1.955
506.755,1.953
507.021,1.944
507.288,1.934
507.554,1.916
507.821,1.900
508.087,1.879
508.354,1.870
508.621,1.856
508.887,1.838
509.154,1.818
509.421,1.806
509.687,1.796
509.954,1.782
510.221,1.769
510.488,1.760
510.755,1.757
511.022,1.753
511.289,1.741
511.556,1.728
511.823,1.716
512.090,1.714
512.357,1.707
512.624,1.700
512.891,1.686
513.159,1.674
513.426,1.662
513.693,1.652
513.960,1.646
514.228,1.643
514.495,1.641
514.763,1.636
515.030,1.627
515.298,1.616
515.565,1.609
515.833,1.606
516.100,1.602
516.368,1.593
516.636,1.584
516.904,1.580
517.171,1.573
517.439,1.572
517.707,1.563
517.975,1.557
518.243,1.550
518.511,1.541
518.779,1.525
519.047,1.515
519.315,1.514
519.583,1.516
519.851,1.507
520.119,1.497
520.387,1.491
520.656,1.489
520.924,1.487
521.192,1.484
521.461,1.482
521.729,1.484
521.997,1.490
522.266,1.497
522.534,1.499
522.803,1.501
523.071,1.495
523.340,1.482
523.609,1.466
523.877,1.456
524.146,1.454
524.415,1.454
524.684,1.454
524.952,1.449
525.221,1.446
525.490,1.452
525.759,1.463
526.028,1.467
526.297,1.454
526.566,1.442
526.835,1.434
527.104,1.437
527.373,1.439
527.642,1.436
527.912,1.425
528.181,1.416
528.450,1.416
528.719,1.423
528.989,1.434
529.258,1.443
529.528,1.444
529.797,1.436
530.067,1.428
530.336,1.423
530.606,1.419
530.875,1.413
531.145,1.411
531.414,1.414
531.684,1.419
531.954,1.419
532.224,1.411
532.493,1.397
532.763,1.390
533.033,1.393
533.303,1.403
533.573,1.410
533.843,1.405
534.113,1.400
534.383,1.393
534.653,1.392
534.923,1.390
535.193,1.391
535.463,1.394
535.733,1.400
536.004,1.406
536.274,1.408
536.544,1.404
536.814,1.400
537.085,1.394
537.355,1.397
537.626,1.404
537.896,1.411
538.166,1.410
538.437,1.407
538.707,1.404
538.978,1.408
539.249,1.416
539.519,1.422
539.790,1.416
540.061,1.413
540.331,1.418
540.602,1.430
540.873,1.435
541.144,1.432
541.414,1.425
541.685,1.422
541.956,1.419
542.227,1.415
542.498,1.409
542.769,1.405
543.040,1.408
543.311,1.417
543.582,1.429
543.853,1.437
544.124,1.440
544.396,1.442
544.667,1.442
544.938,1.436
545.209,1.416
545.480,1.403
545.752,1.398
546.023,1.402
546.294,1.397
546.566,1.389
546.837,1.379
547.109,1.375
547.380,1.372
547.652,1.373
547.923,1.374
548.195,1.376
548.466,1.385
548.738,1.397
549.009,1.402
549.281,1.400
549.553,1.388
549.824,1.373
550.096,1.363
550.368,1.359
550.640,1.360
550.911,1.363
551.183,1.374
551.455,1.393
551.727,1.405
551.999,1.398
552.271,1.382
552.543,1.368
552.815,1.363
553.087,1.368
553.359,1.376
553.631,1.382
553.903,1.380
554.175,1.379
554.447,1.380
554.719,1.381
554.991,1.378
555.263,1.372
555.535,1.368
555.808,1.365
556.080,1.362
556.352,1.361
556.624,1.358
556.897,1.354
557.169,1.350
557.441,1.348
557.714,1.350
557.986,1.356
558.258,1.358
558.531,1.360
558.803,1.359
559.076,1.361
559.348,1.357
559.621,1.352
559.893,1.352
560.166,1.354
560.438,1.355
560.711,1.349
560.983,1.345
561.256,1.347
561.528,1.354
561.801,1.363
562.074,1.371
562.346,1.378
562.619,1.378
562.892,1.370
563.164,1.360
563.437,1.358
563.710,1.360
563.983,1.357
564.255,1.352
564.528,1.355
564.801,1.366
565.074,1.373
565.346,1.366
565.619,1.361
565.892,1.359
566.165,1.358
566.438,1.351
566.711,1.343
566.984,1.340
567.257,1.341
567.529,1.346
567.802,1.361
568.075,1.371
568.348,1.372
568.621,1.366
568.894,1.360
569.167,1.357
569.440,1.352
569.713,1.344
569.986,1.339
570.259,1.331
570.532,1.331
570.805,1.336
571.078,1.342
571.351,1.345
571.625,1.344
571.898,1.339
572.171,1.334
572.444,1.330
572.717,1.338
572.990,1.349
573.263,1.351
573.536,1.343
573.809,1.331
574.083,1.326
574.356,1.328
574.629,1.339
574.902,1.347
575.175,1.346
575.448,1.339
575.721,1.335
575.995,1.336
576.268,1.337
576.541,1.341
576.814,1.346
577.087,1.354
577.361,1.356
577.634,1.353
577.907,1.341
578.180,1.329
578.453,1.322
578.727,1.324
579.000,1.328
579.273,1.334
579.546,1.342
579.820,1.352
580.093,1.351
580.366,1.340
580.639,1.327
580.913,1.322
581.186,1.323
581.459,1.326
581.732,1.326
582.005,1.324
582.279,1.321
582.552,1.321
582.825,1.323
583.098,1.328
583.372,1.332
583.645,1.335
583.918,1.335
584.191,1.335
584.464,1.330
584.738,1.327
585.011,1.323
585.284,1.322
585.557,1.323
585.831,1.329
586.104,1.342
586.377,1.360
586.650,1.370
586.923,1.369
587.196,1.358
587.470,1.346
587.743,1.338
588.016,1.337
588.289,1.343
588.562,1.351
588.835,1.350
589.109,1.340
589.382,1.326
589.655,1.316
589.928,1.309
590.201,1.308
590.474,1.315
590.747,1.327
591.020,1.337
591.293,1.342
591.567,1.342
591.840,1.338
592.113,1.332
592.386,1.325
592.659,1.316
592.932,1.313
593.205,1.315
593.478,1.319
593.751,1.317
594.024,1.315
594.297,1.312
594.570,1.314
594.843,1.319
595.116,1.327
595.389,1.329
595.662,1.325
595.934,1.324
596.207,1.331
596.480,1.343
596.753,1.352
597.026,1.350
597.299,1.342
597.572,1.335
597.844,1.330
598.117,1.326
598.390,1.323
598.663,1.322
598.936,1.326
599.208,1.327
599.481,1.326
599.754,1.323
600.026,1.313
600.299,1.305
600.572,1.300
600.844,1.302
601.117,1.302
601.390,1.301
601.662,1.299
601.935,1.295
602.207,1.292
602.480,1.293
602.752,1.297
603.025,1.297
603.297,1.297
603.570,1.305
603.842,1.321
604.115,1.332
604.387,1.338
604.660,1.331
604.932,1.324
605.204,1.323
605.477,1.331
605.749,1.342
606.021,1.349
606.294,1.350
606.566,1.344
606.838,1.341
607.110,1.345
607.383,1.352
607.655,1.354
607.927,1.357
608.199,1.362
608.471,1.367
608.743,1.362
609.015,1.356
609.287,1.353
609.559,1.357
609.831,1.361
610.103,1.361
610.375,1.355
610.647,1.347
610.919,1.338
611.191,1.334
611.463,1.334
611.735,1.333
612.007,1.329
612.278,1.325
612.550,1.325
612.822,1.328
613.094,1.331
613.365,1.330
613.637,1.331
613.909,1.330
614.180,1.331
614.452,1.327
614.723,1.325
614.995,1.323
615.266,1.324
615.538,1.328
615.809,1.330
616.081,1.325
616.352,1.317
616.623,1.313
616.895,1.312
617.166,1.311
617.437,1.311
617.709,1.316
617.980,1.326
618.251,1.334
618.522,1.339
618.793,1.347
619.065,1.355
619.336,1.352
619.607,1.340
619.878,1.333
620.149,1.340
620.420,1.345
620.691,1.345
620.962,1.341
621.232,1.339
621.503,1.332
621.774,1.326
622.045,1.323
622.316,1.330
622.586,1.341
622.857,1.352
623.128,1.355
623.398,1.354
623.669,1.348
623.940,1.339
624.210,1.328
624.481,1.322
624.751,1.318
625.021,1.317
625.292,1.315
625.562,1.318
625.833,1.317
626.103,1.312
626.373,1.306
626.643,1.308
626.914,1.312
627.184,1.317
627.454,1.319
627.724,1.320
627.994,1.320
628.264,1.317
628.534,1.311
628.804,1.309
629.074,1.315
629.344,1.325
629.614,1.326
629.884,1.318
630.154,1.307
630.424,1.302
630.693,1.297
630.963,1.292
631.233,1.287
631.502,1.292
631.772,1.299
632.041,1.306
632.311,1.307
632.581,1.306
632.850,1.303
633.119,1.297
633.389,1.288
633.658,1.285
633.928,1.292
634.197,1.306
634.466,1.318
634.735,1.323
635.004,1.318
635.274,1.310
635.543,1.300
635.812,1.298
636.081,1.299
636.350,1.303
636.619,1.304
636.888,1.305
637.157,1.307
637.426,1.312
637.694,1.314
637.963,1.310
638.232,1.301
638.501,1.293
638.769,1.294
639.038,1.300
639.307,1.310
639.575,1.317
639.844,1.313
640.112,1.308
640.381,1.300
640.649,1.300
640.917,1.303
641.186,1.306
641.454,1.308
641.722,1.305
641.991,1.301
642.259,1.293
642.527,1.287
642.795,1.284
643.063,1.282
643.331,1.282
643.599,1.284
643.867,1.291
644.135,1.297
644.403,1.306
644.671,1.309
644.939,1.315
645.206,1.319
645.474,1.322
645.742,1.316
646.009,1.305
646.277,1.298
646.545,1.298
646.812,1.304
647.080,1.309
647.347,1.314
647.615,1.313
647.882,1.304
648.149,1.295
648.417,1.290
648.684,1.295
648.951,1.305
649.219,1.314
649.486,1.318
649.753,1.314
650.020,1.306
650.287,1.296
650.554,1.290
650.821,1.289
651.088,1.293
651.355,1.299
651.622,1.301
651.889,1.303
652.155,1.299
652.422,1.298
652.689,1.301
652.956,1.304
653.222,1.311
653.489,1.323
653.755,1.333
654.022,1.329
654.288,1.314
654.555,1.303
654.821,1.303
655.088,1.307
655.354,1.310
655.620,1.313
655.887,1.318
656.153,1.325
656.419,1.330
656.685,1.329
656.951,1.325
657.217,1.318
657.483,1.310
657.749,1.304
658.015,1.304
658.281,1.307
658.547,1.304
658.813,1.297
659.079,1.289
659.345,1.284
659.610,1.280
659.876,1.280
660.142,1.282
660.407,1.287
660.673,1.290
660.939,1.294
661.204,1.294
661.470,1.291
661.735,1.292
662.000,1.294
662.266,1.295
662.531,1.295
662.796,1.295
663.062,1.293
663.327,1.286
663.592,1.283
663.857,1.282
664.122,1.283
664.388,1.282
664.653,1.285
664.918,1.293
665.183,1.296
665.448,1.298
665.712,1.298
665.977,1.305
666.242,1.306
666.507,1.294
666.772,1.282
667.037,1.277
667.301,1.283
667.566,1.285
667.831,1.289
668.095,1.293
668.360,1.297
668.624,1.292
668.889,1.293
669.153,1.293
669.418,1.295
669.682,1.292
669.946,1.293
670.211,1.299
670.475,1.309
670.739,1.322
671.004,1.333
671.268,1.351
671.532,1.366
671.796,1.355
672.060,1.337
672.324,1.321
672.588,1.327
672.852,1.340
673.116,1.368
673.380,1.393
673.644,1.377
673.908,1.338
674.172,1.303
674.436,1.302
674.700,1.305
674.963,1.308
675.227,1.309
675.491,1.303
675.754,1.297
676.018,1.293
676.282,1.297
676.545,1.301
676.809,1.299
677.072,1.292
677.336,1.285
677.599,1.286
677.863,1.290
678.126,1.295
678.389,1.298
678.653,1.301
678.916,1.298
679.179,1.287
679.442,1.286
679.706,1.293
679.969,1.302
680.232,1.305
680.495,1.310
680.758,1.315
681.021,1.317
681.284,1.308
681.547,1.299
681.810,1.299
682.073,1.308
682.336,1.315
682.599,1.312
682.862,1.305
683.125,1.300
683.388,1.300
683.651,1.300
683.913,1.299
684.176,1.295
684.439,1.288
684.702,1.280
684.964,1.276
685.227,1.277
685.490,1.288
685.752,1.302
686.015,1.309
686.277,1.306
686.540,1.298
686.802,1.290
687.065,1.287
687.327,1.286
687.590,1.287
687.852,1.286
688.115,1.283
688.377,1.283
688.639,1.283
688.902,1.285
689.164,1.288
689.426,1.297
689.689,1.304
689.951,1.301
690.213,1.294
690.475,1.289
690.737,1.287
691.000,1.284
691.262,1.280
691.524,1.284
691.786,1.293
692.048,1.303
692.310,1.302
692.572,1.293
692.834,1.283
693.096,1.282
693.358,1.290
693.620,1.300
693.882,1.310
694.144,1.311
694.406,1.304
694.668,1.296
694.930,1.290
695.192,1.289
695.453,1.294
695.715,1.299
695.977,1.304
696.239,1.298
696.501,1.295
696.762,1.297
697.024,1.298
697.286,1.293
697.548,1.285
697.809,1.282
698.071,1.280
698.333,1.280
698.594,1.281
698.856,1.287
699.118,1.292
699.379,1.295
699.641,1.298
699.902,1.303
700.164,1.305
700.426,1.302
700.687,1.296
700.949,1.294
701.210,1.295
701.472,1.293
701.733,1.288
701.995,1.284
702.256,1.284
702.518,1.285
702.779,1.286
703.041,1.296
703.302,1.306
703.563,1.302
703.825,1.290
704.086,1.280
704.348,1.280
704.609,1.286
704.871,1.297
705.132,1.307
705.393,1.304
705.655,1.296
705.916,1.292
706.177,1.295
706.439,1.298
706.700,1.295
706.961,1.291
707.223,1.285
707.484,1.271
707.745,1.258
708.007,1.245
708.268,1.239
708.529,1.230
708.790,1.222
709.052,1.216
709.313,1.214
709.574,1.214
709.835,1.216
710.097,1.212
710.358,1.204
710.619,1.195
710.881,1.190
711.142,1.185
711.403,1.180
711.664,1.177
711.926,1.172
712.187,1.172
712.448,1.176
712.709,1.186
712.970,1.194
713.232,1.197
713.493,1.198
713.754,1.198
714.015,1.204
714.277,1.212
714.538,1.223
714.799,1.228
715.060,1.232
715.322,1.230
715.583,1.225
715.844,1.214
716.105,1.203
716.367,1.196
716.628,1.195
716.889,1.196
717.150,1.194
717.411,1.190
717.673,1.190
717.934,1.195
718.195,1.200
718.457,1.196
718.718,1.187
718.979,1.182
719.240,1.185
719.502,1.190
719.763,1.194
720.024,1.196
720.286,1.196
720.547,1.189
720.808,1.186
721.069,1.183
721.331,1.187
721.592,1.194
721.853,1.200
722.115,1.200
722.376,1.200
722.638,1.198
722.899,1.198
723.160,1.192
723.422,1.188
723.683,1.187
723.944,1.192
724.206,1.198
724.467,1.200
724.729,1.200
724.990,1.201
725.252,1.202
725.513,1.196
725.775,1.184
726.036,1.174
726.298,1.172
726.559,1.174
726.821,1.176
727.082,1.178
727.344,1.179
727.605,1.178
727.867,1.172
728.128,1.174
728.390,1.177
728.652,1.187
728.913,1.195
729.175,1.198
729.436,1.196
729.698,1.194
729.960,1.193
730.221,1.189
730.483,1.180
730.745,1.178
731.007,1.181
731.268,1.188
731.530,1.191
731.792,1.192
732.054,1.192
732.315,1.191
732.577,1.190
732.839,1.185
733.101,1.178
733.363,1.172
733.625,1.172
733.887,1.177
734.149,1.182
734.411,1.188
734.673,1.191
734.935,1.192
735.197,1.191
735.459,1.195
735.721,1.203
735.983,1.203
736.245,1.193
736.507,1.187
736.769,1.190
737.031,1.197
737.293,1.197
737.555,1.191
737.818,1.184
738.080,1.177
738.342,1.173
738.604,1.171
738.867,1.170
739.129,1.166
739.391,1.166
739.654,1.171
739.916,1.176
740.178,1.181
740.441,1.188
740.703,1.190
740.966,1.186
741.228,1.179
741.491,1.176
741.753,1.181
742.016,1.183
742.278,1.186
742.541,1.187
742.804,1.194
743.066,1.202
743.329,1.203
743.592,1.196
743.854,1.190
744.117,1.191
744.380,1.195
744.643,1.194
744.905,1.189
745.168,1.186
745.431,1.184
745.694,1.180
745.957,1.173
746.220,1.167
746.483,1.166
746.746,1.170
747.009,1.182
