Wavelength (nm),Intensity B34.2,,D:/Lab/LED Spectras v2/Spectrometer Data (Blue 25.3-37).sp,,,B34.2,
379.792,2.067,,2018-06-14 15:17:39,,Integration Time,152 ms,
380.000,2.065,,Analyze Light,,Number of Scans to Average,25,
380.209,2.063,,,,Smoothing,1,
380.418,2.078
380.627,2.096
380.837,2.115
381.048,2.126
381.259,2.129
381.471,2.130
381.683,2.138
381.896,2.150
382.110,2.153
382.324,2.161
382.538,2.178
382.753,2.196
382.969,2.191
383.185,2.178
383.402,2.169
383.619,2.180
383.837,2.196
384.055,2.221
384.274,2.241
384.493,2.254
384.712,2.256
384.932,2.261
385.153,2.268
385.374,2.278
385.596,2.287
385.818,2.305
386.040,2.326
386.263,2.347
386.487,2.355
386.710,2.354
386.935,2.342
387.159,2.332
387.385,2.319
387.610,2.314
387.836,2.313
388.063,2.320
388.289,2.330
388.517,2.337
388.744,2.337
388.972,2.351
389.201,2.365
389.430,2.383
389.659,2.393
389.889,2.405
390.119,2.417
390.349,2.426
390.580,2.435
390.811,2.442
391.042,2.441
391.274,2.443
391.507,2.446
391.739,2.448
391.972,2.441
392.205,2.445
392.439,2.462
392.673,2.484
392.907,2.499
393.142,2.511
393.377,2.523
393.612,2.542
393.848,2.551
394.084,2.556
394.320,2.551
394.557,2.560
394.794,2.570
395.031,2.590
395.269,2.607
395.507,2.625
395.745,2.629
395.983,2.632
396.222,2.635
396.461,2.651
396.700,2.671
396.940,2.687
397.180,2.694
397.420,2.692
397.660,2.687
397.901,2.682
398.142,2.684
398.383,2.687
398.625,2.686
398.866,2.694
399.108,2.720
399.351,2.760
399.593,2.777
399.836,2.778
400.079,2.760
400.322,2.747
400.566,2.736
400.809,2.734
401.053,2.737
401.298,2.745
401.542,2.762
401.787,2.788
402.031,2.811
402.277,2.822
402.522,2.824
402.767,2.829
403.013,2.826
403.259,2.831
403.505,2.831
403.752,2.838
403.998,2.838
404.245,2.856
404.492,2.878
404.739,2.900
404.986,2.910
405.234,2.920
405.482,2.924
405.730,2.921
405.978,2.918
406.226,2.916
406.475,2.913
406.723,2.917
406.972,2.935
407.221,2.957
407.470,2.969
407.720,2.977
407.969,2.968
408.219,2.974
408.469,2.982
408.719,3.002
408.969,3.011
409.219,3.020
409.470,3.027
409.720,3.044
409.971,3.061
410.222,3.085
410.473,3.093
410.724,3.095
410.976,3.095
411.227,3.107
411.479,3.116
411.731,3.122
411.983,3.118
412.235,3.120
412.487,3.114
412.740,3.120
412.992,3.123
413.245,3.139
413.497,3.143
413.750,3.151
414.003,3.145
414.257,3.144
414.510,3.137
414.763,3.148
415.017,3.155
415.270,3.165
415.524,3.165
415.778,3.165
416.032,3.162
416.286,3.174
416.540,3.186
416.794,3.203
417.049,3.201
417.303,3.198
417.558,3.195
417.812,3.195
418.067,3.197
418.322,3.199
418.577,3.200
418.832,3.197
419.088,3.183
419.343,3.186
419.598,3.185
419.854,3.196
420.109,3.201
420.365,3.224
420.621,3.240
420.876,3.258
421.132,3.261
421.388,3.263
421.645,3.259
421.901,3.268
422.157,3.278
422.413,3.291
422.670,3.296
422.926,3.307
423.183,3.311
423.439,3.334
423.696,3.358
423.953,3.411
424.210,3.455
424.467,3.484
424.724,3.492
424.981,3.495
425.238,3.514
425.495,3.553
425.753,3.594
426.010,3.635
426.267,3.669
426.525,3.721
426.782,3.775
427.040,3.836
427.298,3.893
427.555,3.966
427.813,4.036
428.071,4.112
428.329,4.180
428.587,4.258
428.845,4.342
429.103,4.439
429.361,4.540
429.619,4.649
429.878,4.758
430.136,4.877
430.394,4.993
430.653,5.131
430.911,5.277
431.170,5.437
431.428,5.580
431.687,5.728
431.946,5.878
432.204,6.050
432.463,6.234
432.722,6.426
432.981,6.621
433.240,6.833
433.499,7.053
433.758,7.295
434.017,7.526
434.276,7.771
434.535,8.009
434.794,8.271
435.053,8.533
435.312,8.824
435.572,9.126
435.831,9.453
436.090,9.788
436.350,10.134
436.609,10.488
436.869,10.857
437.128,11.235
437.388,11.624
437.647,12.026
437.907,12.463
438.166,12.909
438.426,13.369
438.686,13.834
438.946,14.333
439.205,14.854
439.465,15.408
439.725,15.982
439.985,16.587
440.245,17.186
440.505,17.800
440.765,18.432
441.025,19.095
441.285,19.791
441.545,20.509
441.805,21.270
442.065,22.063
442.325,22.907
442.585,23.791
442.846,24.725
443.106,25.710
443.366,26.730
443.626,27.789
443.887,28.889
444.147,30.050
444.407,31.255
444.668,32.515
444.928,33.828
445.189,35.224
445.449,36.668
445.710,38.171
445.970,39.727
446.231,41.367
446.491,43.092
446.752,44.875
447.012,46.708
447.273,48.592
447.534,50.516
447.794,52.475
448.055,54.474
448.316,56.544
448.577,58.679
448.837,60.867
449.098,63.083
449.359,65.302
449.620,67.484
449.881,69.648
450.142,71.795
450.403,73.936
450.664,76.082
450.924,78.206
451.185,80.274
451.446,82.191
451.707,83.887
451.969,85.327
452.230,86.519
452.491,87.520
452.752,88.381
453.013,89.128
453.274,89.784
453.535,90.352
453.796,90.829
454.058,91.220
454.319,91.531
454.580,91.770
454.841,91.943
455.103,92.052
455.364,92.110
455.625,92.124
455.887,92.089
456.148,92.009
456.409,91.880
456.671,91.700
456.932,91.469
457.194,91.179
457.455,90.823
457.716,90.401
457.978,89.916
458.239,89.362
458.501,88.746
458.763,88.047
459.024,87.257
459.286,86.324
459.547,85.222
459.809,83.898
460.071,82.374
460.332,80.714
460.594,79.004
460.856,77.290
461.117,75.571
461.379,73.876
461.641,72.197
461.903,70.545
462.164,68.917
462.426,67.324
462.688,65.779
462.950,64.263
463.212,62.789
463.474,61.364
463.736,59.998
463.998,58.706
464.260,57.481
464.522,56.334
464.784,55.249
465.046,54.215
465.308,53.225
465.570,52.268
465.832,51.366
466.094,50.496
466.356,49.671
466.618,48.856
466.880,48.066
467.142,47.275
467.405,46.514
467.667,45.780
467.929,45.073
468.191,44.363
468.454,43.648
468.716,42.927
468.978,42.188
469.241,41.421
469.503,40.651
469.765,39.900
470.028,39.168
470.290,38.447
470.552,37.716
470.815,37.002
471.077,36.288
471.340,35.584
471.602,34.864
471.865,34.145
472.128,33.412
472.390,32.699
472.653,31.982
472.915,31.268
473.178,30.547
473.441,29.820
473.703,29.097
473.966,28.360
474.229,27.638
474.492,26.924
474.755,26.223
475.017,25.530
475.280,24.856
475.543,24.207
475.806,23.546
476.069,22.887
476.332,22.229
476.595,21.616
476.858,21.019
477.121,20.439
477.384,19.871
477.647,19.343
477.910,18.830
478.173,18.336
478.436,17.849
478.699,17.397
478.962,16.951
479.226,16.538
479.489,16.130
479.752,15.742
480.015,15.349
480.279,14.979
480.542,14.619
480.805,14.262
481.069,13.903
481.332,13.565
481.595,13.253
481.859,12.977
482.122,12.691
482.386,12.405
482.649,12.104
482.913,11.823
483.177,11.545
483.440,11.276
483.704,11.005
483.967,10.769
484.231,10.543
484.495,10.337
484.759,10.112
485.022,9.889
485.286,9.659
485.550,9.431
485.814,9.192
486.078,8.966
486.342,8.747
486.606,8.559
486.869,8.369
487.133,8.196
487.397,8.017
487.662,7.837
487.926,7.642
488.190,7.447
488.454,7.251
488.718,7.073
488.982,6.888
489.246,6.724
489.511,6.544
489.775,6.370
490.039,6.185
490.304,6.011
490.568,5.841
490.832,5.687
491.097,5.543
491.361,5.416
491.626,5.286
491.890,5.160
492.155,5.031
492.419,4.917
492.684,4.780
492.949,4.643
493.213,4.507
493.478,4.401
493.743,4.294
494.008,4.172
494.272,4.048
494.537,3.949
494.802,3.870
495.067,3.805
495.332,3.738
495.597,3.673
495.862,3.597
496.127,3.521
496.392,3.436
496.657,3.355
496.922,3.276
497.187,3.216
497.452,3.161
497.718,3.120
497.983,3.065
498.248,3.012
498.513,2.946
498.779,2.905
499.044,2.873
499.310,2.836
499.575,2.782
499.841,2.731
500.106,2.696
500.372,2.662
500.637,2.631
500.903,2.611
501.168,2.590
501.434,2.559
501.700,2.506
501.966,2.463
502.231,2.424
502.497,2.395
502.763,2.361
503.029,2.330
503.295,2.304
503.561,2.287
503.827,2.275
504.093,2.264
504.359,2.246
504.625,2.230
504.891,2.208
505.157,2.190
505.423,2.162
505.690,2.132
505.956,2.102
506.222,2.087
506.489,2.091
506.755,2.099
507.021,2.099
507.288,2.091
507.554,2.073
507.821,2.057
508.087,2.040
508.354,2.039
508.621,2.033
508.887,2.018
509.154,1.999
509.421,1.984
509.687,1.969
509.954,1.949
510.221,1.930
510.488,1.927
510.755,1.933
511.022,1.941
511.289,1.931
511.556,1.915
511.823,1.899
512.090,1.903
512.357,1.902
512.624,1.902
512.891,1.887
513.159,1.874
513.426,1.855
513.693,1.843
513.960,1.836
514.228,1.839
514.495,1.840
514.763,1.839
515.030,1.830
515.298,1.819
515.565,1.816
515.833,1.815
516.100,1.814
516.368,1.804
516.636,1.797
516.904,1.797
517.171,1.791
517.439,1.788
517.707,1.778
517.975,1.778
518.243,1.777
518.511,1.775
518.779,1.758
519.047,1.747
519.315,1.745
519.583,1.747
519.851,1.735
520.119,1.722
520.387,1.716
520.656,1.716
520.924,1.719
521.192,1.720
521.461,1.723
521.729,1.725
521.997,1.727
522.266,1.727
522.534,1.725
522.803,1.726
523.071,1.724
523.340,1.715
523.609,1.699
523.877,1.690
524.146,1.687
524.415,1.694
524.684,1.702
524.952,1.704
525.221,1.701
525.490,1.704
525.759,1.710
526.028,1.709
526.297,1.690
526.566,1.673
526.835,1.666
527.104,1.672
527.373,1.681
527.642,1.684
527.912,1.677
528.181,1.666
528.450,1.662
528.719,1.668
528.989,1.687
529.258,1.702
529.528,1.704
529.797,1.693
530.067,1.689
530.336,1.686
530.606,1.680
530.875,1.665
531.145,1.656
531.414,1.654
531.684,1.662
531.954,1.665
532.224,1.659
532.493,1.639
532.763,1.624
533.033,1.621
533.303,1.633
533.573,1.646
533.843,1.644
534.113,1.635
534.383,1.621
534.653,1.622
534.923,1.632
535.193,1.646
535.463,1.662
535.733,1.672
536.004,1.677
536.274,1.672
536.544,1.661
536.814,1.648
537.085,1.639
537.355,1.643
537.626,1.659
537.896,1.671
538.166,1.671
538.437,1.662
538.707,1.651
538.978,1.648
539.249,1.657
539.519,1.663
539.790,1.659
540.061,1.651
540.331,1.654
540.602,1.667
540.873,1.677
541.144,1.680
541.414,1.677
541.685,1.677
541.956,1.675
542.227,1.671
542.498,1.660
542.769,1.652
543.040,1.652
543.311,1.666
543.582,1.684
543.853,1.696
544.124,1.700
544.396,1.700
544.667,1.697
544.938,1.688
545.209,1.662
545.480,1.649
545.752,1.643
546.023,1.656
546.294,1.658
546.566,1.651
546.837,1.639
547.109,1.630
547.380,1.625
547.652,1.620
547.923,1.618
548.195,1.624
548.466,1.640
548.738,1.656
549.009,1.656
549.281,1.648
549.553,1.633
549.824,1.617
550.096,1.604
550.368,1.599
550.640,1.602
550.911,1.609
551.183,1.626
551.455,1.652
551.727,1.673
551.999,1.669
552.271,1.646
552.543,1.626
552.815,1.613
553.087,1.619
553.359,1.627
553.631,1.638
553.903,1.639
554.175,1.644
554.447,1.653
554.719,1.658
554.991,1.655
555.263,1.647
555.535,1.641
555.808,1.634
556.080,1.624
556.352,1.616
556.624,1.610
556.897,1.605
557.169,1.604
557.441,1.601
557.714,1.597
557.986,1.593
558.258,1.589
558.531,1.596
558.803,1.603
559.076,1.612
559.348,1.606
559.621,1.599
559.893,1.598
560.166,1.602
560.438,1.603
560.711,1.596
560.983,1.592
561.256,1.593
561.528,1.600
561.801,1.608
562.074,1.616
562.346,1.625
562.619,1.636
562.892,1.639
563.164,1.632
563.437,1.623
563.710,1.620
563.983,1.613
564.255,1.602
564.528,1.604
564.801,1.617
565.074,1.626
565.346,1.618
565.619,1.610
565.892,1.614
566.165,1.615
566.438,1.601
566.711,1.583
566.984,1.579
567.257,1.584
567.529,1.593
567.802,1.609
568.075,1.627
568.348,1.631
568.621,1.625
568.894,1.613
569.167,1.607
569.440,1.595
569.713,1.578
569.986,1.570
570.259,1.568
570.532,1.581
570.805,1.594
571.078,1.604
571.351,1.611
571.625,1.613
571.898,1.608
572.171,1.595
572.444,1.584
572.717,1.588
572.990,1.601
573.263,1.600
573.536,1.586
573.809,1.565
574.083,1.558
574.356,1.567
574.629,1.591
574.902,1.607
575.175,1.609
575.448,1.593
575.721,1.583
575.995,1.577
576.268,1.578
576.541,1.584
576.814,1.593
577.087,1.601
577.361,1.604
577.634,1.601
577.907,1.590
578.180,1.570
578.453,1.560
578.727,1.562
579.000,1.572
579.273,1.584
579.546,1.596
579.820,1.611
580.093,1.611
580.366,1.600
580.639,1.582
580.913,1.576
581.186,1.573
581.459,1.569
581.732,1.557
582.005,1.554
582.279,1.551
582.552,1.560
582.825,1.562
583.098,1.568
583.372,1.573
583.645,1.580
583.918,1.587
584.191,1.588
584.464,1.589
584.738,1.589
585.011,1.589
585.284,1.585
585.557,1.580
585.831,1.582
586.104,1.595
586.377,1.616
586.650,1.627
586.923,1.630
587.196,1.625
587.470,1.612
587.743,1.600
588.016,1.587
588.289,1.588
588.562,1.597
588.835,1.600
589.109,1.591
589.382,1.576
589.655,1.568
589.928,1.565
590.201,1.566
590.474,1.579
590.747,1.594
591.020,1.608
591.293,1.610
591.567,1.610
591.840,1.601
592.113,1.587
592.386,1.570
592.659,1.554
592.932,1.554
593.205,1.564
593.478,1.575
593.751,1.574
594.024,1.567
594.297,1.556
594.570,1.552
594.843,1.561
595.116,1.578
595.389,1.587
595.662,1.580
595.934,1.577
596.207,1.582
596.480,1.595
596.753,1.607
597.026,1.612
597.299,1.612
597.572,1.607
597.844,1.595
598.117,1.577
598.390,1.561
598.663,1.559
598.936,1.571
599.208,1.585
599.481,1.596
599.754,1.597
600.026,1.581
600.299,1.563
600.572,1.547
600.844,1.540
601.117,1.532
601.390,1.531
601.662,1.534
601.935,1.535
602.207,1.537
602.480,1.546
602.752,1.554
603.025,1.549
603.297,1.544
603.570,1.554
603.842,1.574
604.115,1.587
604.387,1.593
604.660,1.587
604.932,1.579
605.204,1.575
605.477,1.584
605.749,1.602
606.021,1.614
606.294,1.617
606.566,1.604
606.838,1.595
607.110,1.593
607.383,1.602
607.655,1.609
607.927,1.619
608.199,1.630
608.471,1.635
608.743,1.626
609.015,1.614
609.287,1.606
609.559,1.608
609.831,1.614
610.103,1.613
610.375,1.604
610.647,1.589
610.919,1.576
611.191,1.573
611.463,1.577
611.735,1.583
612.007,1.579
612.278,1.573
612.550,1.564
612.822,1.570
613.094,1.580
613.365,1.589
613.637,1.595
613.909,1.595
614.180,1.596
614.452,1.590
614.723,1.581
614.995,1.570
615.266,1.566
615.538,1.575
615.809,1.590
616.081,1.589
616.352,1.576
616.623,1.563
616.895,1.556
617.166,1.551
617.437,1.547
617.709,1.551
617.980,1.561
618.251,1.570
618.522,1.580
618.793,1.595
619.065,1.616
619.336,1.616
619.607,1.600
619.878,1.585
620.149,1.589
620.420,1.595
620.691,1.591
620.962,1.588
621.232,1.594
621.503,1.595
621.774,1.590
622.045,1.584
622.316,1.593
622.586,1.608
622.857,1.621
623.128,1.620
623.398,1.612
623.669,1.602
623.940,1.589
624.210,1.577
624.481,1.576
624.751,1.577
625.021,1.577
625.292,1.565
625.562,1.562
625.833,1.559
626.103,1.556
626.373,1.544
626.643,1.540
626.914,1.546
627.184,1.559
627.454,1.565
627.724,1.567
627.994,1.569
628.264,1.569
628.534,1.561
628.804,1.549
629.074,1.550
629.344,1.560
629.614,1.566
629.884,1.560
630.154,1.547
630.424,1.535
630.693,1.523
630.963,1.508
631.233,1.494
631.502,1.497
631.772,1.518
632.041,1.538
632.311,1.545
632.581,1.548
632.850,1.543
633.119,1.529
633.389,1.509
633.658,1.502
633.928,1.512
634.197,1.534
634.466,1.555
634.735,1.571
635.004,1.567
635.274,1.556
635.543,1.544
635.812,1.542
636.081,1.545
636.350,1.547
636.619,1.550
636.888,1.550
637.157,1.554
637.426,1.565
637.694,1.575
637.963,1.575
638.232,1.562
638.501,1.549
638.769,1.550
639.038,1.560
639.307,1.575
639.575,1.582
639.844,1.572
640.112,1.557
640.381,1.540
640.649,1.536
640.917,1.537
641.186,1.540
641.454,1.547
641.722,1.550
641.991,1.554
642.259,1.540
642.527,1.531
642.795,1.522
643.063,1.514
643.331,1.507
643.599,1.503
643.867,1.515
644.135,1.528
644.403,1.544
644.671,1.555
644.939,1.568
645.206,1.574
645.474,1.575
645.742,1.562
646.009,1.541
646.277,1.531
646.545,1.534
646.812,1.558
647.080,1.578
647.347,1.589
647.615,1.584
647.882,1.564
648.149,1.542
648.417,1.528
648.684,1.533
648.951,1.552
649.219,1.568
649.486,1.576
649.753,1.570
650.020,1.552
650.287,1.535
650.554,1.522
650.821,1.518
651.088,1.518
651.355,1.532
651.622,1.545
651.889,1.558
652.155,1.551
652.422,1.546
652.689,1.548
652.956,1.557
653.222,1.571
653.489,1.585
653.755,1.593
654.022,1.587
654.288,1.567
654.555,1.553
654.821,1.554
655.088,1.564
655.354,1.572
655.620,1.580
655.887,1.586
656.153,1.589
656.419,1.585
656.685,1.578
656.951,1.570
657.217,1.561
657.483,1.553
657.749,1.548
658.015,1.548
658.281,1.549
658.547,1.544
658.813,1.537
659.079,1.529
659.345,1.522
659.610,1.519
659.876,1.518
660.142,1.519
660.407,1.521
660.673,1.528
660.939,1.540
661.204,1.540
661.470,1.529
661.735,1.518
662.000,1.522
662.266,1.531
662.531,1.535
662.796,1.534
663.062,1.528
663.327,1.519
663.592,1.516
663.857,1.516
664.122,1.521
664.388,1.522
664.653,1.529
664.918,1.538
665.183,1.542
665.448,1.547
665.712,1.550
665.977,1.559
666.242,1.560
666.507,1.537
666.772,1.512
667.037,1.492
667.301,1.498
667.566,1.510
667.831,1.526
668.095,1.538
668.360,1.544
668.624,1.538
668.889,1.542
669.153,1.542
669.418,1.543
669.682,1.537
669.946,1.538
670.211,1.550
670.475,1.562
670.739,1.580
671.004,1.597
671.268,1.628
671.532,1.659
671.796,1.649
672.060,1.622
672.324,1.591
672.588,1.596
672.852,1.609
673.116,1.646
673.380,1.682
673.644,1.660
673.908,1.607
674.172,1.554
674.436,1.553
674.700,1.555
674.963,1.558
675.227,1.559
675.491,1.553
675.754,1.545
676.018,1.539
676.282,1.545
676.545,1.546
676.809,1.536
677.072,1.521
677.336,1.509
677.599,1.512
677.863,1.513
678.126,1.518
678.389,1.533
678.653,1.549
678.916,1.554
679.179,1.537
679.442,1.525
679.706,1.533
679.969,1.542
680.232,1.550
680.495,1.557
680.758,1.570
681.021,1.575
681.284,1.562
681.547,1.542
681.810,1.541
682.073,1.559
682.336,1.578
682.599,1.575
682.862,1.562
683.125,1.558
683.388,1.566
683.651,1.568
683.913,1.558
684.176,1.541
684.439,1.525
684.702,1.509
684.964,1.504
685.227,1.505
685.490,1.523
685.752,1.545
686.015,1.559
686.277,1.554
686.540,1.538
686.802,1.521
687.065,1.519
687.327,1.529
687.590,1.541
687.852,1.536
688.115,1.516
688.377,1.503
688.639,1.502
688.902,1.508
689.164,1.520
689.426,1.541
689.689,1.559
689.951,1.559
690.213,1.554
690.475,1.552
690.737,1.551
691.000,1.546
691.262,1.539
691.524,1.542
691.786,1.556
692.048,1.570
692.310,1.568
692.572,1.544
692.834,1.515
693.096,1.507
693.358,1.524
693.620,1.553
693.882,1.575
694.144,1.580
694.406,1.570
694.668,1.556
694.930,1.544
695.192,1.538
695.453,1.541
695.715,1.546
695.977,1.543
696.239,1.532
696.501,1.526
696.762,1.534
697.024,1.540
697.286,1.532
697.548,1.524
697.809,1.520
698.071,1.523
698.333,1.521
698.594,1.518
698.856,1.525
699.118,1.535
699.379,1.543
699.641,1.549
699.902,1.556
700.164,1.559
700.426,1.551
700.687,1.541
700.949,1.541
701.210,1.543
701.472,1.537
701.733,1.523
701.995,1.520
702.256,1.523
702.518,1.528
702.779,1.525
703.041,1.541
703.302,1.560
703.563,1.564
703.825,1.547
704.086,1.529
704.348,1.523
704.609,1.526
704.871,1.541
705.132,1.557
705.393,1.556
705.655,1.550
705.916,1.547
706.177,1.553
706.439,1.556
706.700,1.552
706.961,1.550
707.223,1.546
707.484,1.524
707.745,1.503
708.007,1.481
708.268,1.467
708.529,1.452
708.790,1.430
709.052,1.420
709.313,1.417
709.574,1.423
709.835,1.429
710.097,1.427
710.358,1.415
710.619,1.398
710.881,1.386
711.142,1.381
711.403,1.376
711.664,1.374
711.926,1.367
712.187,1.369
712.448,1.374
712.709,1.388
712.970,1.399
713.232,1.409
713.493,1.415
713.754,1.418
714.015,1.423
714.277,1.430
714.538,1.440
714.799,1.454
715.060,1.460
715.322,1.458
715.583,1.442
715.844,1.426
716.105,1.409
716.367,1.400
716.628,1.397
716.889,1.397
717.150,1.391
717.411,1.382
717.673,1.382
717.934,1.390
718.195,1.397
718.457,1.393
718.718,1.384
718.979,1.378
719.240,1.383
719.502,1.393
719.763,1.404
720.024,1.410
720.286,1.412
720.547,1.405
720.808,1.397
721.069,1.391
721.331,1.396
721.592,1.409
721.853,1.419
722.115,1.427
722.376,1.432
722.638,1.434
722.899,1.432
723.160,1.422
723.422,1.409
723.683,1.399
723.944,1.399
724.206,1.403
724.467,1.406
724.729,1.406
724.990,1.413
725.252,1.421
725.513,1.415
725.775,1.397
726.036,1.381
726.298,1.376
726.559,1.383
726.821,1.387
727.082,1.390
727.344,1.390
727.605,1.393
727.867,1.389
728.128,1.388
728.390,1.386
728.652,1.397
728.913,1.412
729.175,1.423
729.436,1.425
729.698,1.424
729.960,1.421
730.221,1.413
730.483,1.396
730.745,1.387
731.007,1.384
731.268,1.386
731.530,1.386
731.792,1.387
732.054,1.392
732.315,1.398
732.577,1.403
732.839,1.396
733.101,1.387
733.363,1.379
733.625,1.381
733.887,1.384
734.149,1.388
734.411,1.397
734.673,1.406
734.935,1.413
735.197,1.409
735.459,1.409
735.721,1.409
735.983,1.405
736.245,1.390
736.507,1.387
736.769,1.396
737.031,1.406
737.293,1.399
737.555,1.384
737.818,1.375
738.080,1.372
738.342,1.375
738.604,1.375
738.867,1.374
739.129,1.369
739.391,1.367
739.654,1.370
739.916,1.376
740.178,1.382
740.441,1.391
740.703,1.394
740.966,1.389
741.228,1.382
741.491,1.380
741.753,1.385
742.016,1.388
742.278,1.388
742.541,1.387
742.804,1.389
743.066,1.398
743.329,1.405
743.592,1.403
743.854,1.403
744.117,1.408
744.380,1.417
744.643,1.414
744.905,1.408
745.168,1.402
745.431,1.396
745.694,1.386
745.957,1.378
746.220,1.373
746.483,1.372
746.746,1.374
747.009,1.389
747.272,1.415
