Wavelength (nm),Intensity B37.2,,D:/Lab/LED Spectras v2/Spectrometer Data (Blue 25.3-37).sp,,,B37.2,
379.792,1.934,,2018-06-14 15:30:10,,Integration Time,128 ms,
380.000,1.939,,Analyze Light,,Number of Scans to Average,25,
380.209,1.940,,,,Smoothing,1,
380.418,1.952
380.627,1.963
380.837,1.974
381.048,1.981
381.259,1.982
381.471,1.981
381.683,1.983
381.896,1.989
382.110,1.993
382.324,2.002
382.538,2.016
382.753,2.028
382.969,2.020
383.185,2.007
383.402,1.998
383.619,2.008
383.837,2.026
384.055,2.049
384.274,2.066
384.493,2.072
384.712,2.071
384.932,2.071
385.153,2.078
385.374,2.087
385.596,2.097
385.818,2.111
386.040,2.124
386.263,2.138
386.487,2.144
386.710,2.146
386.935,2.137
387.159,2.136
387.385,2.130
387.610,2.130
387.836,2.130
388.063,2.136
388.289,2.145
388.517,2.153
388.744,2.157
388.972,2.168
389.201,2.172
389.430,2.182
389.659,2.187
389.889,2.200
390.119,2.208
390.349,2.213
390.580,2.221
390.811,2.228
391.042,2.232
391.274,2.233
391.507,2.234
391.739,2.232
391.972,2.229
392.205,2.234
392.439,2.244
392.673,2.255
392.907,2.266
393.142,2.280
393.377,2.294
393.612,2.309
393.848,2.318
394.084,2.328
394.320,2.332
394.557,2.340
394.794,2.342
395.031,2.350
395.269,2.359
395.507,2.370
395.745,2.370
395.983,2.371
396.222,2.376
396.461,2.395
396.700,2.414
396.940,2.426
397.180,2.425
397.420,2.419
397.660,2.416
397.901,2.418
398.142,2.425
398.383,2.428
398.625,2.427
398.866,2.435
399.108,2.456
399.351,2.488
399.593,2.493
399.836,2.489
400.079,2.472
400.322,2.463
400.566,2.458
400.809,2.459
401.053,2.468
401.298,2.478
401.542,2.493
401.787,2.511
402.031,2.525
402.277,2.535
402.522,2.537
402.767,2.547
403.013,2.544
403.259,2.547
403.505,2.547
403.752,2.550
403.998,2.550
404.245,2.565
404.492,2.585
404.739,2.599
404.986,2.602
405.234,2.604
405.482,2.608
405.730,2.607
405.978,2.609
406.226,2.605
406.475,2.602
406.723,2.603
406.972,2.613
407.221,2.630
407.470,2.640
407.720,2.650
407.969,2.649
408.219,2.661
408.469,2.672
408.719,2.687
408.969,2.689
409.219,2.696
409.470,2.703
409.720,2.718
409.971,2.729
410.222,2.744
410.473,2.751
410.724,2.752
410.976,2.754
411.227,2.762
411.479,2.765
411.731,2.763
411.983,2.758
412.235,2.763
412.487,2.764
412.740,2.771
412.992,2.774
413.245,2.786
413.497,2.793
413.750,2.802
414.003,2.805
414.257,2.808
414.510,2.806
414.763,2.814
415.017,2.822
415.270,2.834
415.524,2.834
415.778,2.836
416.032,2.834
416.286,2.844
416.540,2.853
416.794,2.868
417.049,2.874
417.303,2.881
417.558,2.887
417.812,2.891
418.067,2.889
418.322,2.885
418.577,2.884
418.832,2.883
419.088,2.871
419.343,2.867
419.598,2.860
419.854,2.868
420.109,2.874
420.365,2.890
420.621,2.895
420.876,2.903
421.132,2.899
421.388,2.898
421.645,2.891
421.901,2.896
422.157,2.901
422.413,2.909
422.670,2.908
422.926,2.913
423.183,2.913
423.439,2.925
423.696,2.937
423.953,2.970
424.210,3.000
424.467,3.016
424.724,3.012
424.981,2.995
425.238,2.990
425.495,3.005
425.753,3.025
426.010,3.047
426.267,3.062
426.525,3.100
426.782,3.135
427.040,3.173
427.298,3.203
427.555,3.244
427.813,3.281
428.071,3.316
428.329,3.348
428.587,3.386
428.845,3.428
429.103,3.477
429.361,3.527
429.619,3.583
429.878,3.640
430.136,3.713
430.394,3.780
430.653,3.865
430.911,3.954
431.170,4.058
431.428,4.142
431.687,4.232
431.946,4.320
432.204,4.429
432.463,4.545
432.722,4.677
432.981,4.808
433.240,4.952
433.499,5.095
433.758,5.252
434.017,5.397
434.276,5.550
434.535,5.703
434.794,5.878
435.053,6.070
435.312,6.282
435.572,6.496
435.831,6.719
436.090,6.946
436.350,7.193
436.609,7.451
436.869,7.727
437.128,8.003
437.388,8.284
437.647,8.572
437.907,8.890
438.166,9.220
438.426,9.562
438.686,9.905
438.946,10.268
439.205,10.649
439.465,11.053
439.725,11.473
439.985,11.910
440.245,12.351
440.505,12.802
440.765,13.249
441.025,13.714
441.285,14.197
441.545,14.715
441.805,15.257
442.065,15.812
442.325,16.378
442.585,16.971
442.846,17.590
443.106,18.268
443.366,18.961
443.626,19.684
443.887,20.402
444.147,21.154
444.407,21.928
444.668,22.754
444.928,23.604
445.189,24.511
445.449,25.441
445.710,26.424
445.970,27.450
446.231,28.535
446.491,29.672
446.752,30.859
447.012,32.102
447.273,33.399
447.534,34.742
447.794,36.121
448.055,37.556
448.316,39.075
448.577,40.694
448.837,42.402
449.098,44.184
449.359,46.008
449.620,47.866
449.881,49.774
450.142,51.750
450.403,53.814
450.664,55.949
450.924,58.130
451.185,60.349
451.446,62.594
451.707,64.880
451.969,67.191
452.230,69.510
452.491,71.845
452.752,74.153
453.013,76.439
453.274,78.644
453.535,80.771
453.796,82.730
454.058,84.434
454.319,85.847
454.580,86.998
454.841,87.973
455.103,88.819
455.364,89.554
455.625,90.212
455.887,90.760
456.148,91.218
456.409,91.573
456.671,91.852
456.932,92.067
457.194,92.214
457.455,92.300
457.716,92.323
457.978,92.292
458.239,92.200
458.501,92.062
458.763,91.874
459.024,91.645
459.286,91.353
459.547,90.983
459.809,90.523
460.071,89.972
460.332,89.330
460.594,88.598
460.856,87.758
461.117,86.776
461.379,85.595
461.641,84.173
461.903,82.518
462.164,80.700
462.426,78.785
462.688,76.821
462.950,74.834
463.212,72.853
463.474,70.891
463.736,68.942
463.998,67.044
464.260,65.230
464.522,63.503
464.784,61.847
465.046,60.256
465.308,58.752
465.570,57.341
465.832,56.019
466.094,54.766
466.356,53.567
466.618,52.407
466.880,51.291
467.142,50.229
467.405,49.236
467.667,48.319
467.929,47.453
468.191,46.642
468.454,45.849
468.716,45.093
468.978,44.336
469.241,43.599
469.503,42.870
469.765,42.168
470.028,41.489
470.290,40.827
470.552,40.177
470.815,39.526
471.077,38.873
471.340,38.212
471.602,37.546
471.865,36.884
472.128,36.216
472.390,35.565
472.653,34.894
472.915,34.221
473.178,33.513
473.441,32.805
473.703,32.094
473.966,31.373
474.229,30.637
474.492,29.884
474.755,29.132
475.017,28.394
475.280,27.667
475.543,26.956
475.806,26.238
476.069,25.507
476.332,24.776
476.595,24.057
476.858,23.362
477.121,22.678
477.384,22.003
477.647,21.359
477.910,20.728
478.173,20.125
478.436,19.525
478.699,18.947
478.962,18.386
479.226,17.862
479.489,17.350
479.752,16.858
480.015,16.362
480.279,15.888
480.542,15.421
480.805,14.984
481.069,14.561
481.332,14.160
481.595,13.773
481.859,13.429
482.122,13.097
482.386,12.767
482.649,12.432
482.913,12.117
483.177,11.819
483.440,11.531
483.704,11.248
483.967,10.991
484.231,10.744
484.495,10.513
484.759,10.289
485.022,10.073
485.286,9.853
485.550,9.636
485.814,9.396
486.078,9.166
486.342,8.936
486.606,8.747
486.869,8.564
487.133,8.390
487.397,8.210
487.662,8.031
487.926,7.837
488.190,7.655
488.454,7.464
488.718,7.288
488.982,7.099
489.246,6.931
489.511,6.758
489.775,6.589
490.039,6.415
490.304,6.240
490.568,6.062
490.832,5.895
491.097,5.740
491.361,5.606
491.626,5.469
491.890,5.336
492.155,5.193
492.419,5.060
492.684,4.915
492.949,4.770
493.213,4.622
493.478,4.497
493.743,4.372
494.008,4.248
494.272,4.118
494.537,4.012
494.802,3.913
495.067,3.832
495.332,3.747
495.597,3.673
495.862,3.587
496.127,3.508
496.392,3.421
496.657,3.340
496.922,3.256
497.187,3.181
497.452,3.111
497.718,3.055
497.983,2.994
498.248,2.939
498.513,2.875
498.779,2.833
499.044,2.796
499.310,2.756
499.575,2.698
499.841,2.646
500.106,2.605
500.372,2.568
500.637,2.534
500.903,2.510
501.168,2.487
501.434,2.453
501.700,2.406
501.966,2.369
502.231,2.337
502.497,2.311
502.763,2.280
503.029,2.252
503.295,2.228
503.561,2.209
503.827,2.195
504.093,2.178
504.359,2.162
504.625,2.141
504.891,2.120
505.157,2.102
505.423,2.079
505.690,2.052
505.956,2.024
506.222,2.010
506.489,2.015
506.755,2.027
507.021,2.029
507.288,2.022
507.554,2.008
507.821,1.995
508.087,1.982
508.354,1.978
508.621,1.972
508.887,1.959
509.154,1.942
509.421,1.928
509.687,1.909
509.954,1.888
510.221,1.872
510.488,1.873
510.755,1.879
511.022,1.883
511.289,1.869
511.556,1.851
511.823,1.838
512.090,1.843
512.357,1.842
512.624,1.836
512.891,1.820
513.159,1.807
513.426,1.794
513.693,1.785
513.960,1.780
514.228,1.782
514.495,1.785
514.763,1.785
515.030,1.773
515.298,1.761
515.565,1.754
515.833,1.751
516.100,1.744
516.368,1.736
516.636,1.730
516.904,1.733
517.171,1.731
517.439,1.728
517.707,1.717
517.975,1.713
518.243,1.712
518.511,1.709
518.779,1.694
519.047,1.684
519.315,1.680
519.583,1.680
519.851,1.671
520.119,1.665
520.387,1.662
520.656,1.662
520.924,1.663
521.192,1.666
521.461,1.672
521.729,1.679
521.997,1.685
522.266,1.684
522.534,1.677
522.803,1.670
523.071,1.663
523.340,1.655
523.609,1.645
523.877,1.639
524.146,1.638
524.415,1.641
524.684,1.642
524.952,1.639
525.221,1.635
525.490,1.638
525.759,1.645
526.028,1.647
526.297,1.636
526.566,1.625
526.835,1.621
527.104,1.627
527.373,1.635
527.642,1.635
527.912,1.622
528.181,1.609
528.450,1.606
528.719,1.614
528.989,1.630
529.258,1.644
529.528,1.647
529.797,1.639
530.067,1.631
530.336,1.623
530.606,1.618
530.875,1.611
531.145,1.610
531.414,1.613
531.684,1.621
531.954,1.624
532.224,1.616
532.493,1.601
532.763,1.590
533.033,1.589
533.303,1.595
533.573,1.603
533.843,1.602
534.113,1.599
534.383,1.591
534.653,1.591
534.923,1.593
535.193,1.601
535.463,1.606
535.733,1.610
536.004,1.614
536.274,1.615
536.544,1.608
536.814,1.596
537.085,1.583
537.355,1.585
537.626,1.600
537.896,1.615
538.166,1.619
538.437,1.613
538.707,1.606
538.978,1.606
539.249,1.615
539.519,1.620
539.790,1.612
540.061,1.604
540.331,1.608
540.602,1.624
540.873,1.634
541.144,1.636
541.414,1.631
541.685,1.627
541.956,1.624
542.227,1.622
542.498,1.615
542.769,1.608
543.040,1.612
543.311,1.626
543.582,1.637
543.853,1.642
544.124,1.644
544.396,1.647
544.667,1.650
544.938,1.649
545.209,1.631
545.480,1.614
545.752,1.603
546.023,1.608
546.294,1.606
546.566,1.599
546.837,1.588
547.109,1.585
547.380,1.583
547.652,1.580
547.923,1.575
548.195,1.577
548.466,1.587
548.738,1.598
549.009,1.596
549.281,1.588
549.553,1.576
549.824,1.561
550.096,1.549
550.368,1.548
550.640,1.555
550.911,1.564
551.183,1.578
551.455,1.598
551.727,1.611
551.999,1.602
552.271,1.579
552.543,1.564
552.815,1.562
553.087,1.574
553.359,1.585
553.631,1.589
553.903,1.590
554.175,1.593
554.447,1.603
554.719,1.608
554.991,1.607
555.263,1.603
555.535,1.595
555.808,1.586
556.080,1.575
556.352,1.564
556.624,1.557
556.897,1.554
557.169,1.557
557.441,1.557
557.714,1.555
557.986,1.555
558.258,1.549
558.531,1.553
558.803,1.556
559.076,1.564
559.348,1.558
559.621,1.548
559.893,1.550
560.166,1.555
560.438,1.557
560.711,1.549
560.983,1.545
561.256,1.550
561.528,1.559
561.801,1.568
562.074,1.575
562.346,1.585
562.619,1.592
562.892,1.588
563.164,1.576
563.437,1.569
563.710,1.564
563.983,1.552
564.255,1.539
564.528,1.542
564.801,1.560
565.074,1.574
565.346,1.573
565.619,1.568
565.892,1.571
566.165,1.568
566.438,1.556
566.711,1.542
566.984,1.538
567.257,1.537
567.529,1.544
567.802,1.561
568.075,1.580
568.348,1.580
568.621,1.574
568.894,1.562
569.167,1.562
569.440,1.551
569.713,1.537
569.986,1.529
570.259,1.525
570.532,1.534
570.805,1.541
571.078,1.546
571.351,1.548
571.625,1.551
571.898,1.551
572.171,1.542
572.444,1.530
572.717,1.535
572.990,1.549
573.263,1.554
573.536,1.543
573.809,1.526
574.083,1.517
574.356,1.522
574.629,1.543
574.902,1.558
575.175,1.557
575.448,1.539
575.721,1.523
575.995,1.518
576.268,1.517
576.541,1.525
576.814,1.537
577.087,1.552
577.361,1.555
577.634,1.552
577.907,1.541
578.180,1.527
578.453,1.516
578.727,1.509
579.000,1.509
579.273,1.518
579.546,1.537
579.820,1.554
580.093,1.551
580.366,1.538
580.639,1.517
580.913,1.510
581.186,1.510
581.459,1.519
581.732,1.516
582.005,1.513
582.279,1.508
582.552,1.509
582.825,1.511
583.098,1.516
583.372,1.524
583.645,1.534
583.918,1.539
584.191,1.540
584.464,1.534
584.738,1.527
585.011,1.524
585.284,1.523
585.557,1.520
585.831,1.523
586.104,1.541
586.377,1.566
586.650,1.581
586.923,1.578
587.196,1.567
587.470,1.548
587.743,1.535
588.016,1.528
588.289,1.534
588.562,1.546
588.835,1.548
589.109,1.541
589.382,1.526
589.655,1.514
589.928,1.506
590.201,1.504
590.474,1.513
590.747,1.530
591.020,1.550
591.293,1.559
591.567,1.559
591.840,1.553
592.113,1.546
592.386,1.533
592.659,1.519
592.932,1.511
593.205,1.516
593.478,1.520
593.751,1.519
594.024,1.515
594.297,1.509
594.570,1.504
594.843,1.506
595.116,1.513
595.389,1.521
595.662,1.516
595.934,1.516
596.207,1.527
596.480,1.545
596.753,1.557
597.026,1.556
597.299,1.550
597.572,1.543
597.844,1.533
598.117,1.519
598.390,1.509
598.663,1.508
598.936,1.514
599.208,1.523
599.481,1.530
599.754,1.529
600.026,1.517
600.299,1.504
600.572,1.498
600.844,1.495
601.117,1.489
601.390,1.482
601.662,1.478
601.935,1.476
602.207,1.478
602.480,1.486
602.752,1.495
603.025,1.493
603.297,1.488
603.570,1.494
603.842,1.518
604.115,1.537
604.387,1.544
604.660,1.532
604.932,1.524
605.204,1.527
605.477,1.539
605.749,1.554
606.021,1.563
606.294,1.567
606.566,1.553
606.838,1.547
607.110,1.544
607.383,1.556
607.655,1.560
607.927,1.565
608.199,1.568
608.471,1.571
608.743,1.565
609.015,1.556
609.287,1.550
609.559,1.554
609.831,1.558
610.103,1.563
610.375,1.561
610.647,1.552
610.919,1.537
611.191,1.529
611.463,1.530
611.735,1.535
612.007,1.529
612.278,1.521
612.550,1.514
612.822,1.522
613.094,1.531
613.365,1.537
613.637,1.544
613.909,1.548
614.180,1.550
614.452,1.541
614.723,1.528
614.995,1.518
615.266,1.516
615.538,1.523
615.809,1.536
616.081,1.537
616.352,1.528
616.623,1.517
616.895,1.514
617.166,1.513
617.437,1.512
617.709,1.514
617.980,1.519
618.251,1.526
618.522,1.535
618.793,1.549
619.065,1.566
619.336,1.563
619.607,1.546
619.878,1.531
620.149,1.537
620.420,1.545
620.691,1.540
620.962,1.538
621.232,1.543
621.503,1.540
621.774,1.530
622.045,1.519
622.316,1.526
622.586,1.541
622.857,1.558
623.128,1.565
623.398,1.561
623.669,1.547
623.940,1.530
624.210,1.518
624.481,1.521
624.751,1.525
625.021,1.525
625.292,1.517
625.562,1.516
625.833,1.516
626.103,1.510
626.373,1.499
626.643,1.497
626.914,1.506
627.184,1.515
627.454,1.520
627.724,1.519
627.994,1.519
628.264,1.514
628.534,1.505
628.804,1.502
629.074,1.510
629.344,1.519
629.614,1.517
629.884,1.506
630.154,1.494
630.424,1.485
630.693,1.476
630.963,1.466
631.233,1.459
631.502,1.460
631.772,1.474
632.041,1.487
632.311,1.496
632.581,1.499
632.850,1.501
633.119,1.495
633.389,1.482
633.658,1.471
633.928,1.475
634.197,1.487
634.466,1.501
634.735,1.510
635.004,1.506
635.274,1.498
635.543,1.489
635.812,1.488
636.081,1.492
636.350,1.498
636.619,1.505
636.888,1.505
637.157,1.505
637.426,1.507
637.694,1.506
637.963,1.502
638.232,1.494
638.501,1.487
638.769,1.490
639.038,1.497
639.307,1.513
639.575,1.527
639.844,1.523
640.112,1.512
640.381,1.496
640.649,1.492
640.917,1.489
641.186,1.487
641.454,1.489
641.722,1.491
641.991,1.492
642.259,1.481
642.527,1.473
642.795,1.470
643.063,1.470
643.331,1.472
643.599,1.475
643.867,1.485
644.135,1.488
644.403,1.493
644.671,1.495
644.939,1.503
645.206,1.510
645.474,1.518
645.742,1.512
646.009,1.493
646.277,1.483
646.545,1.486
646.812,1.506
647.080,1.523
647.347,1.532
647.615,1.527
647.882,1.506
648.149,1.482
648.417,1.466
648.684,1.470
648.951,1.486
649.219,1.501
649.486,1.503
649.753,1.498
650.020,1.491
650.287,1.490
650.554,1.490
650.821,1.487
651.088,1.486
651.355,1.494
651.622,1.498
651.889,1.497
652.155,1.486
652.422,1.486
652.689,1.493
652.956,1.503
653.222,1.515
653.489,1.534
653.755,1.547
654.022,1.541
654.288,1.517
654.555,1.500
654.821,1.497
655.088,1.502
655.354,1.505
655.620,1.513
655.887,1.521
656.153,1.529
656.419,1.534
656.685,1.531
656.951,1.527
657.217,1.518
657.483,1.509
657.749,1.506
658.015,1.506
658.281,1.507
658.547,1.498
658.813,1.488
659.079,1.480
659.345,1.474
659.610,1.476
659.876,1.480
660.142,1.481
660.407,1.478
660.673,1.475
660.939,1.482
661.204,1.485
661.470,1.481
661.735,1.476
662.000,1.478
662.266,1.485
662.531,1.486
662.796,1.484
663.062,1.479
663.327,1.474
663.592,1.476
663.857,1.481
664.122,1.484
664.388,1.480
664.653,1.480
664.918,1.488
665.183,1.494
665.448,1.496
665.712,1.496
665.977,1.502
666.242,1.505
666.507,1.489
666.772,1.468
667.037,1.450
667.301,1.454
667.566,1.465
667.831,1.479
668.095,1.488
668.360,1.492
668.624,1.483
668.889,1.484
669.153,1.483
669.418,1.483
669.682,1.479
669.946,1.480
670.211,1.494
670.475,1.505
670.739,1.516
671.004,1.528
671.268,1.556
671.532,1.589
671.796,1.583
672.060,1.564
672.324,1.540
672.588,1.546
672.852,1.559
673.116,1.593
673.380,1.623
673.644,1.598
673.908,1.545
674.172,1.490
674.436,1.485
674.700,1.489
674.963,1.497
675.227,1.500
675.491,1.495
675.754,1.488
676.018,1.485
676.282,1.491
676.545,1.494
676.809,1.489
677.072,1.480
677.336,1.473
677.599,1.475
677.863,1.475
678.126,1.479
678.389,1.487
678.653,1.497
678.916,1.498
679.179,1.487
679.442,1.481
679.706,1.484
679.969,1.489
680.232,1.493
680.495,1.505
680.758,1.518
681.021,1.521
681.284,1.508
681.547,1.492
681.810,1.494
682.073,1.510
682.336,1.523
682.599,1.519
682.862,1.509
683.125,1.504
683.388,1.509
683.651,1.512
683.913,1.510
684.176,1.501
684.439,1.486
684.702,1.470
684.964,1.460
685.227,1.459
685.490,1.471
685.752,1.494
686.015,1.503
686.277,1.501
686.540,1.489
686.802,1.481
687.065,1.479
687.327,1.482
687.590,1.484
687.852,1.477
688.115,1.461
688.377,1.454
688.639,1.456
688.902,1.464
689.164,1.470
689.426,1.483
689.689,1.497
689.951,1.501
690.213,1.498
690.475,1.493
690.737,1.491
691.000,1.485
691.262,1.480
691.524,1.484
691.786,1.497
692.048,1.510
692.310,1.505
692.572,1.485
692.834,1.461
693.096,1.455
693.358,1.465
693.620,1.482
693.882,1.500
694.144,1.506
694.406,1.501
694.668,1.494
694.930,1.490
695.192,1.494
695.453,1.497
695.715,1.501
695.977,1.493
696.239,1.479
696.501,1.471
696.762,1.477
697.024,1.482
697.286,1.479
697.548,1.472
697.809,1.469
698.071,1.467
698.333,1.467
698.594,1.465
698.856,1.470
699.118,1.471
699.379,1.475
699.641,1.485
699.902,1.498
700.164,1.505
700.426,1.501
700.687,1.495
700.949,1.494
701.210,1.493
701.472,1.487
701.733,1.476
701.995,1.474
702.256,1.475
702.518,1.477
702.779,1.469
703.041,1.476
703.302,1.491
703.563,1.501
703.825,1.495
704.086,1.481
704.348,1.472
704.609,1.473
704.871,1.487
705.132,1.504
705.393,1.503
705.655,1.493
705.916,1.486
706.177,1.487
706.439,1.489
706.700,1.487
706.961,1.484
707.223,1.482
707.484,1.469
707.745,1.455
708.007,1.441
708.268,1.431
708.529,1.420
708.790,1.405
709.052,1.394
709.313,1.392
709.574,1.393
709.835,1.399
710.097,1.396
710.358,1.384
710.619,1.369
710.881,1.358
711.142,1.352
711.403,1.344
711.664,1.344
711.926,1.342
712.187,1.349
712.448,1.356
712.709,1.368
712.970,1.375
713.232,1.375
713.493,1.375
713.754,1.374
714.015,1.380
714.277,1.385
714.538,1.391
714.799,1.400
715.060,1.405
715.322,1.405
715.583,1.397
715.844,1.385
716.105,1.374
716.367,1.365
716.628,1.365
716.889,1.364
717.150,1.356
717.411,1.346
717.673,1.348
717.934,1.358
718.195,1.370
718.457,1.368
718.718,1.357
718.979,1.349
719.240,1.352
719.502,1.363
719.763,1.371
720.024,1.376
720.286,1.373
720.547,1.362
720.808,1.352
721.069,1.348
721.331,1.356
721.592,1.369
721.853,1.381
722.115,1.384
722.376,1.383
722.638,1.383
722.899,1.385
723.160,1.382
723.422,1.375
723.683,1.370
723.944,1.372
724.206,1.372
724.467,1.368
724.729,1.364
724.990,1.372
725.252,1.381
725.513,1.377
725.775,1.360
726.036,1.346
726.298,1.342
726.559,1.347
726.821,1.349
727.082,1.350
727.344,1.347
727.605,1.348
727.867,1.348
728.128,1.353
728.390,1.355
728.652,1.367
728.913,1.378
729.175,1.383
729.436,1.382
729.698,1.378
729.960,1.374
730.221,1.370
730.483,1.358
730.745,1.354
731.007,1.351
731.268,1.353
731.530,1.355
731.792,1.356
732.054,1.357
732.315,1.360
732.577,1.365
732.839,1.364
733.101,1.356
733.363,1.351
733.625,1.347
733.887,1.348
734.149,1.349
734.411,1.357
734.673,1.367
734.935,1.374
735.197,1.376
735.459,1.378
735.721,1.378
735.983,1.371
736.245,1.354
736.507,1.347
736.769,1.353
737.031,1.363
737.293,1.362
737.555,1.353
737.818,1.344
738.080,1.340
738.342,1.341
738.604,1.340
738.867,1.342
739.129,1.342
739.391,1.340
739.654,1.338
739.916,1.338
740.178,1.345
740.441,1.352
740.703,1.358
740.966,1.358
741.228,1.356
741.491,1.354
741.753,1.357
742.016,1.359
742.278,1.361
742.541,1.361
742.804,1.364
743.066,1.370
743.329,1.374
743.592,1.374
743.854,1.372
744.117,1.376
744.380,1.379
744.643,1.373
744.905,1.364
745.168,1.361
745.431,1.360
745.694,1.358
745.957,1.354
746.220,1.351
746.483,1.349
746.746,1.349
747.009,1.358
747.272,1.374
