Wavelength (nm),Intensity B33.3,,D:/Lab/LED Spectras v2/Spectrometer Data (Blue 25.3-37).sp,,,B33.3,
379.792,1.956,,2018-06-14 15:11:59,,Integration Time,123 ms,
380.000,1.955,,Analyze Light,,Number of Scans to Average,25,
380.209,1.951,,,,Smoothing,1,
380.418,1.957
380.627,1.967
380.837,1.980
381.048,1.986
381.259,1.984
381.471,1.982
381.683,1.986
381.896,1.998
382.110,2.006
382.324,2.021
382.538,2.037
382.753,2.050
382.969,2.045
383.185,2.031
383.402,2.017
383.619,2.019
383.837,2.033
384.055,2.056
384.274,2.075
384.493,2.084
384.712,2.090
384.932,2.097
385.153,2.102
385.374,2.108
385.596,2.108
385.818,2.122
386.040,2.135
386.263,2.154
386.487,2.157
386.710,2.158
386.935,2.148
387.159,2.144
387.385,2.138
387.610,2.137
387.836,2.139
388.063,2.145
388.289,2.154
388.517,2.159
388.744,2.160
388.972,2.168
389.201,2.173
389.430,2.184
389.659,2.190
389.889,2.200
390.119,2.208
390.349,2.216
390.580,2.228
390.811,2.235
391.042,2.241
391.274,2.244
391.507,2.247
391.739,2.244
391.972,2.240
392.205,2.243
392.439,2.257
392.673,2.269
392.907,2.281
393.142,2.295
393.377,2.311
393.612,2.326
393.848,2.332
394.084,2.339
394.320,2.341
394.557,2.351
394.794,2.357
395.031,2.368
395.269,2.375
395.507,2.382
395.745,2.380
395.983,2.378
396.222,2.383
396.461,2.400
396.700,2.420
396.940,2.433
397.180,2.436
397.420,2.432
397.660,2.424
397.901,2.420
398.142,2.424
398.383,2.430
398.625,2.432
398.866,2.440
399.108,2.461
399.351,2.490
399.593,2.499
399.836,2.499
400.079,2.486
400.322,2.479
400.566,2.467
400.809,2.465
401.053,2.474
401.298,2.485
401.542,2.502
401.787,2.519
402.031,2.531
402.277,2.536
402.522,2.532
402.767,2.535
403.013,2.532
403.259,2.534
403.505,2.535
403.752,2.542
403.998,2.547
404.245,2.563
404.492,2.577
404.739,2.590
404.986,2.598
405.234,2.607
405.482,2.612
405.730,2.613
405.978,2.614
406.226,2.610
406.475,2.604
406.723,2.604
406.972,2.615
407.221,2.632
407.470,2.640
407.720,2.646
407.969,2.640
408.219,2.646
408.469,2.652
408.719,2.666
408.969,2.675
409.219,2.686
409.470,2.698
409.720,2.714
409.971,2.728
410.222,2.742
410.473,2.744
410.724,2.741
410.976,2.741
411.227,2.749
411.479,2.756
411.731,2.762
411.983,2.763
412.235,2.767
412.487,2.766
412.740,2.768
412.992,2.770
413.245,2.779
413.497,2.784
413.750,2.791
414.003,2.788
414.257,2.785
414.510,2.780
414.763,2.787
415.017,2.797
415.270,2.809
415.524,2.808
415.778,2.807
416.032,2.805
416.286,2.814
416.540,2.820
416.794,2.833
417.049,2.839
417.303,2.844
417.558,2.842
417.812,2.842
418.067,2.843
418.322,2.850
418.577,2.851
418.832,2.851
419.088,2.840
419.343,2.842
419.598,2.837
419.854,2.844
420.109,2.846
420.365,2.861
420.621,2.868
420.876,2.884
421.132,2.892
421.388,2.899
421.645,2.898
421.901,2.905
422.157,2.917
422.413,2.930
422.670,2.935
422.926,2.937
423.183,2.930
423.439,2.939
423.696,2.952
423.953,2.991
424.210,3.025
424.467,3.045
424.724,3.046
424.981,3.039
425.238,3.050
425.495,3.087
425.753,3.123
426.010,3.158
426.267,3.179
426.525,3.217
426.782,3.251
427.040,3.291
427.298,3.331
427.555,3.386
427.813,3.437
428.071,3.493
428.329,3.544
428.587,3.599
428.845,3.657
429.103,3.725
429.361,3.791
429.619,3.861
429.878,3.929
430.136,4.010
430.394,4.093
430.653,4.200
430.911,4.314
431.170,4.437
431.428,4.547
431.687,4.663
431.946,4.781
432.204,4.911
432.463,5.051
432.722,5.204
432.981,5.359
433.240,5.529
433.499,5.700
433.758,5.892
434.017,6.079
434.276,6.284
434.535,6.480
434.794,6.694
435.053,6.904
435.312,7.134
435.572,7.357
435.831,7.609
436.090,7.881
436.350,8.176
436.609,8.471
436.869,8.779
437.128,9.102
437.388,9.437
437.647,9.773
437.907,10.121
438.166,10.474
438.426,10.848
438.686,11.236
438.946,11.651
439.205,12.084
439.465,12.543
439.725,13.016
439.985,13.503
440.245,13.989
440.505,14.497
440.765,15.019
441.025,15.564
441.285,16.124
441.545,16.716
441.805,17.332
442.065,17.975
442.325,18.642
442.585,19.353
442.846,20.101
443.106,20.891
443.366,21.720
443.626,22.586
443.887,23.478
444.147,24.402
444.407,25.357
444.668,26.368
444.928,27.430
445.189,28.559
445.449,29.726
445.710,30.940
445.970,32.205
446.231,33.546
446.491,34.969
446.752,36.452
447.012,37.992
447.273,39.584
447.534,41.230
447.794,42.924
448.055,44.667
448.316,46.493
448.577,48.410
448.837,50.401
449.098,52.451
449.359,54.542
449.620,56.649
449.881,58.771
450.142,60.921
450.403,63.131
450.664,65.393
450.924,67.672
451.185,69.956
451.446,72.215
451.707,74.449
451.969,76.649
452.230,78.792
452.491,80.861
452.752,82.759
453.013,84.415
453.274,85.782
453.535,86.904
453.796,87.849
454.058,88.671
454.319,89.386
454.580,90.005
454.841,90.533
455.103,90.977
455.364,91.345
455.625,91.632
455.887,91.849
456.148,92.003
456.409,92.101
456.671,92.143
456.932,92.132
457.194,92.070
457.455,91.960
457.716,91.803
457.978,91.598
458.239,91.345
458.501,91.039
458.763,90.664
459.024,90.223
459.286,89.709
459.547,89.123
459.809,88.452
460.071,87.677
460.332,86.791
460.594,85.768
460.856,84.573
461.117,83.179
461.379,81.622
461.641,79.975
461.903,78.291
462.164,76.569
462.426,74.832
462.688,73.094
462.950,71.375
463.212,69.682
463.474,68.016
463.736,66.398
463.998,64.852
464.260,63.386
464.522,61.995
464.784,60.657
465.046,59.397
465.308,58.200
465.570,57.065
465.832,55.969
466.094,54.905
466.356,53.875
466.618,52.862
466.880,51.888
467.142,50.958
467.405,50.074
467.667,49.228
467.929,48.394
468.191,47.585
468.454,46.775
468.716,45.969
468.978,45.150
469.241,44.337
469.503,43.550
469.765,42.772
470.028,42.011
470.290,41.246
470.552,40.512
470.815,39.779
471.077,39.049
471.340,38.314
471.602,37.578
471.865,36.856
472.128,36.119
472.390,35.401
472.653,34.668
472.915,33.950
473.178,33.212
473.441,32.471
473.703,31.693
473.966,30.920
474.229,30.135
474.492,29.372
474.755,28.607
475.017,27.880
475.280,27.164
475.543,26.482
475.806,25.790
476.069,25.102
476.332,24.411
476.595,23.729
476.858,23.065
477.121,22.411
477.384,21.793
477.647,21.214
477.910,20.647
478.173,20.090
478.436,19.529
478.699,18.997
478.962,18.481
479.226,18.006
479.489,17.546
479.752,17.099
480.015,16.646
480.279,16.209
480.542,15.779
480.805,15.363
481.069,14.955
481.332,14.572
481.595,14.201
481.859,13.873
482.122,13.552
482.386,13.243
482.649,12.920
482.913,12.606
483.177,12.303
483.440,12.009
483.704,11.726
483.967,11.464
484.231,11.213
484.495,10.969
484.759,10.720
485.022,10.473
485.286,10.227
485.550,9.987
485.814,9.744
486.078,9.507
486.342,9.283
486.606,9.083
486.869,8.887
487.133,8.693
487.397,8.493
487.662,8.299
487.926,8.097
488.190,7.898
488.454,7.692
488.718,7.495
488.982,7.292
489.246,7.109
489.511,6.926
489.775,6.755
490.039,6.575
490.304,6.394
490.568,6.201
490.832,6.027
491.097,5.863
491.361,5.723
491.626,5.577
491.890,5.442
492.155,5.305
492.419,5.178
492.684,5.037
492.949,4.901
493.213,4.761
493.478,4.642
493.743,4.518
494.008,4.392
494.272,4.260
494.537,4.154
494.802,4.056
495.067,3.973
495.332,3.887
495.597,3.811
495.862,3.727
496.127,3.649
496.392,3.562
496.657,3.478
496.922,3.390
497.187,3.317
497.452,3.251
497.718,3.205
497.983,3.147
498.248,3.083
498.513,3.009
498.779,2.959
499.044,2.919
499.310,2.875
499.575,2.816
499.841,2.763
500.106,2.718
500.372,2.676
500.637,2.633
500.903,2.606
501.168,2.579
501.434,2.545
501.700,2.496
501.966,2.456
502.231,2.423
502.497,2.399
502.763,2.368
503.029,2.338
503.295,2.309
503.561,2.284
503.827,2.266
504.093,2.251
504.359,2.232
504.625,2.213
504.891,2.186
505.157,2.170
505.423,2.143
505.690,2.114
505.956,2.080
506.222,2.061
506.489,2.059
506.755,2.063
507.021,2.060
507.288,2.054
507.554,2.041
507.821,2.028
508.087,2.013
508.354,2.007
508.621,1.999
508.887,1.985
509.154,1.967
509.421,1.956
509.687,1.943
509.954,1.927
510.221,1.910
510.488,1.903
510.755,1.903
511.022,1.903
511.289,1.888
511.556,1.868
511.823,1.851
512.090,1.851
512.357,1.847
512.624,1.844
512.891,1.834
513.159,1.823
513.426,1.811
513.693,1.801
513.960,1.797
514.228,1.795
514.495,1.793
514.763,1.787
515.030,1.780
515.298,1.773
515.565,1.773
515.833,1.774
516.100,1.771
516.368,1.761
516.636,1.750
516.904,1.747
517.171,1.744
517.439,1.742
517.707,1.735
517.975,1.736
518.243,1.737
518.511,1.734
518.779,1.718
519.047,1.711
519.315,1.709
519.583,1.710
519.851,1.697
520.119,1.688
520.387,1.684
520.656,1.683
520.924,1.680
521.192,1.679
521.461,1.682
521.729,1.687
521.997,1.695
522.266,1.698
522.534,1.694
522.803,1.692
523.071,1.690
523.340,1.681
523.609,1.664
523.877,1.652
524.146,1.649
524.415,1.652
524.684,1.653
524.952,1.650
525.221,1.646
525.490,1.651
525.759,1.661
526.028,1.665
526.297,1.651
526.566,1.635
526.835,1.627
527.104,1.626
527.373,1.631
527.642,1.634
527.912,1.630
528.181,1.625
528.450,1.624
528.719,1.631
528.989,1.640
529.258,1.649
529.528,1.649
529.797,1.640
530.067,1.635
530.336,1.632
530.606,1.629
530.875,1.618
531.145,1.609
531.414,1.609
531.684,1.615
531.954,1.619
532.224,1.614
532.493,1.600
532.763,1.591
533.033,1.591
533.303,1.601
533.573,1.609
533.843,1.605
534.113,1.600
534.383,1.592
534.653,1.592
534.923,1.596
535.193,1.606
535.463,1.619
535.733,1.626
536.004,1.632
536.274,1.629
536.544,1.620
536.814,1.607
537.085,1.598
537.355,1.604
537.626,1.616
537.896,1.624
538.166,1.623
538.437,1.616
538.707,1.611
538.978,1.612
539.249,1.621
539.519,1.626
539.790,1.618
540.061,1.610
540.331,1.615
540.602,1.628
540.873,1.635
541.144,1.634
541.414,1.628
541.685,1.624
541.956,1.618
542.227,1.610
542.498,1.604
542.769,1.602
543.040,1.607
543.311,1.619
543.582,1.632
543.853,1.637
544.124,1.641
544.396,1.646
544.667,1.647
544.938,1.643
545.209,1.622
545.480,1.610
545.752,1.602
546.023,1.609
546.294,1.606
546.566,1.597
546.837,1.579
547.109,1.573
547.380,1.573
547.652,1.576
547.923,1.577
548.195,1.585
548.466,1.602
548.738,1.616
549.009,1.613
549.281,1.597
549.553,1.581
549.824,1.566
550.096,1.558
550.368,1.557
550.640,1.560
550.911,1.564
551.183,1.574
551.455,1.594
551.727,1.610
551.999,1.609
552.271,1.595
552.543,1.579
552.815,1.567
553.087,1.571
553.359,1.578
553.631,1.588
553.903,1.589
554.175,1.593
554.447,1.600
554.719,1.607
554.991,1.607
555.263,1.600
555.535,1.592
555.808,1.582
556.080,1.572
556.352,1.565
556.624,1.563
556.897,1.562
557.169,1.558
557.441,1.553
557.714,1.549
557.986,1.549
558.258,1.546
558.531,1.552
558.803,1.558
559.076,1.565
559.348,1.563
559.621,1.555
559.893,1.551
560.166,1.552
560.438,1.554
560.711,1.550
560.983,1.544
561.256,1.542
561.528,1.552
561.801,1.565
562.074,1.575
562.346,1.579
562.619,1.586
562.892,1.588
563.164,1.583
563.437,1.580
563.710,1.578
563.983,1.574
564.255,1.565
564.528,1.565
564.801,1.575
565.074,1.579
565.346,1.569
565.619,1.562
565.892,1.565
566.165,1.565
566.438,1.550
566.711,1.538
566.984,1.540
567.257,1.549
567.529,1.558
567.802,1.572
568.075,1.590
568.348,1.591
568.621,1.586
568.894,1.575
569.167,1.570
569.440,1.555
569.713,1.538
569.986,1.528
570.259,1.526
570.532,1.536
570.805,1.544
571.078,1.548
571.351,1.551
571.625,1.555
571.898,1.553
572.171,1.543
572.444,1.533
572.717,1.540
572.990,1.557
573.263,1.560
573.536,1.545
573.809,1.520
574.083,1.507
574.356,1.511
574.629,1.533
574.902,1.552
575.175,1.554
575.448,1.541
575.721,1.531
575.995,1.528
576.268,1.528
576.541,1.534
576.814,1.543
577.087,1.550
577.361,1.550
577.634,1.543
577.907,1.530
578.180,1.516
578.453,1.510
578.727,1.514
579.000,1.522
579.273,1.529
579.546,1.542
579.820,1.552
580.093,1.556
580.366,1.548
580.639,1.536
580.913,1.531
581.186,1.527
581.459,1.527
581.732,1.518
582.005,1.513
582.279,1.505
582.552,1.509
582.825,1.514
583.098,1.525
583.372,1.534
583.645,1.540
583.918,1.544
584.191,1.542
584.464,1.535
584.738,1.528
585.011,1.529
585.284,1.528
585.557,1.523
585.831,1.524
586.104,1.539
586.377,1.564
586.650,1.576
586.923,1.576
587.196,1.570
587.470,1.558
587.743,1.550
588.016,1.543
588.289,1.549
588.562,1.559
588.835,1.562
589.109,1.548
589.382,1.527
589.655,1.512
589.928,1.506
590.201,1.502
590.474,1.510
590.747,1.523
591.020,1.541
591.293,1.548
591.567,1.545
591.840,1.535
592.113,1.525
592.386,1.515
592.659,1.506
592.932,1.504
593.205,1.512
593.478,1.517
593.751,1.512
594.024,1.505
594.297,1.499
594.570,1.501
594.843,1.509
595.116,1.520
595.389,1.526
595.662,1.522
595.934,1.520
596.207,1.524
596.480,1.537
596.753,1.548
597.026,1.547
597.299,1.539
597.572,1.534
597.844,1.528
598.117,1.521
598.390,1.510
598.663,1.506
598.936,1.510
599.208,1.521
599.481,1.535
599.754,1.541
600.026,1.530
600.299,1.514
600.572,1.502
600.844,1.498
601.117,1.490
601.390,1.482
601.662,1.479
601.935,1.479
602.207,1.483
602.480,1.490
602.752,1.496
603.025,1.492
603.297,1.488
603.570,1.497
603.842,1.518
604.115,1.532
604.387,1.536
604.660,1.523
604.932,1.517
605.204,1.523
605.477,1.539
605.749,1.558
606.021,1.569
606.294,1.576
606.566,1.567
606.838,1.559
607.110,1.550
607.383,1.549
607.655,1.547
607.927,1.555
608.199,1.567
608.471,1.576
608.743,1.567
609.015,1.552
609.287,1.539
609.559,1.539
609.831,1.547
610.103,1.555
610.375,1.551
610.647,1.541
610.919,1.530
611.191,1.531
611.463,1.535
611.735,1.536
612.007,1.524
612.278,1.514
612.550,1.509
612.822,1.516
613.094,1.524
613.365,1.526
613.637,1.530
613.909,1.528
614.180,1.531
614.452,1.528
614.723,1.524
614.995,1.518
615.266,1.515
615.538,1.526
615.809,1.535
616.081,1.535
616.352,1.523
616.623,1.512
616.895,1.509
617.166,1.504
617.437,1.507
617.709,1.510
617.980,1.517
618.251,1.519
618.522,1.522
618.793,1.538
619.065,1.562
619.336,1.566
619.607,1.549
619.878,1.534
620.149,1.537
620.420,1.539
620.691,1.530
620.962,1.527
621.232,1.536
621.503,1.534
621.774,1.529
622.045,1.522
622.316,1.531
622.586,1.541
622.857,1.555
623.128,1.560
623.398,1.555
623.669,1.544
623.940,1.523
624.210,1.508
624.481,1.505
624.751,1.511
625.021,1.514
625.292,1.511
625.562,1.511
625.833,1.512
626.103,1.507
626.373,1.499
626.643,1.498
626.914,1.500
627.184,1.507
627.454,1.507
627.724,1.508
627.994,1.506
628.264,1.508
628.534,1.503
628.804,1.500
629.074,1.502
629.344,1.512
629.614,1.517
629.884,1.512
630.154,1.497
630.424,1.483
630.693,1.471
630.963,1.461
631.233,1.454
631.502,1.461
631.772,1.479
632.041,1.495
632.311,1.504
632.581,1.507
632.850,1.508
633.119,1.499
633.389,1.484
633.658,1.474
633.928,1.481
634.197,1.496
634.466,1.511
634.735,1.518
635.004,1.513
635.274,1.507
635.543,1.498
635.812,1.496
636.081,1.496
636.350,1.496
636.619,1.498
636.888,1.495
637.157,1.497
637.426,1.502
637.694,1.508
637.963,1.508
638.232,1.504
638.501,1.498
638.769,1.500
639.038,1.505
639.307,1.519
639.575,1.531
639.844,1.526
640.112,1.511
640.381,1.488
640.649,1.478
640.917,1.475
641.186,1.479
641.454,1.490
641.722,1.495
641.991,1.496
642.259,1.487
642.527,1.482
642.795,1.484
643.063,1.481
643.331,1.479
643.599,1.476
643.867,1.484
644.135,1.491
644.403,1.499
644.671,1.503
644.939,1.512
645.206,1.520
645.474,1.526
645.742,1.513
646.009,1.491
646.277,1.479
646.545,1.483
646.812,1.499
647.080,1.514
647.347,1.525
647.615,1.523
647.882,1.506
648.149,1.488
648.417,1.477
648.684,1.480
648.951,1.493
649.219,1.505
649.486,1.509
649.753,1.505
650.020,1.496
650.287,1.486
650.554,1.479
650.821,1.477
651.088,1.476
651.355,1.487
651.622,1.493
651.889,1.500
652.155,1.495
652.422,1.494
652.689,1.498
652.956,1.503
653.222,1.515
653.489,1.533
653.755,1.545
654.022,1.539
654.288,1.518
654.555,1.498
654.821,1.489
655.088,1.489
655.354,1.495
655.620,1.505
655.887,1.510
656.153,1.515
656.419,1.515
656.685,1.512
656.951,1.508
657.217,1.504
657.483,1.501
657.749,1.496
658.015,1.495
658.281,1.493
658.547,1.486
658.813,1.478
659.079,1.472
659.345,1.470
659.610,1.467
659.876,1.465
660.142,1.467
660.407,1.473
660.673,1.482
660.939,1.491
661.204,1.493
661.470,1.489
661.735,1.485
662.000,1.487
662.266,1.487
662.531,1.486
662.796,1.483
663.062,1.481
663.327,1.476
663.592,1.473
663.857,1.474
664.122,1.476
664.388,1.474
664.653,1.478
664.918,1.487
665.183,1.494
665.448,1.498
665.712,1.498
665.977,1.504
666.242,1.504
666.507,1.491
666.772,1.474
667.037,1.460
667.301,1.460
667.566,1.467
667.831,1.475
668.095,1.480
668.360,1.480
668.624,1.474
668.889,1.480
669.153,1.479
669.418,1.481
669.682,1.478
669.946,1.479
670.211,1.488
670.475,1.496
670.739,1.509
671.004,1.524
671.268,1.554
671.532,1.583
671.796,1.575
672.060,1.551
672.324,1.532
672.588,1.544
672.852,1.563
673.116,1.593
673.380,1.623
673.644,1.600
673.908,1.552
674.172,1.504
674.436,1.500
674.700,1.501
674.963,1.507
675.227,1.511
675.491,1.506
675.754,1.498
676.018,1.490
676.282,1.494
676.545,1.493
676.809,1.485
677.072,1.472
677.336,1.465
677.599,1.469
677.863,1.474
678.126,1.480
678.389,1.489
678.653,1.499
678.916,1.500
679.179,1.488
679.442,1.481
679.706,1.487
679.969,1.494
680.232,1.500
680.495,1.509
680.758,1.518
681.021,1.516
681.284,1.503
681.547,1.486
681.810,1.484
682.073,1.495
682.336,1.507
682.599,1.507
682.862,1.505
683.125,1.509
683.388,1.516
683.651,1.512
683.913,1.502
684.176,1.488
684.439,1.478
684.702,1.467
684.964,1.463
685.227,1.465
685.490,1.475
685.752,1.494
686.015,1.504
686.277,1.501
686.540,1.489
686.802,1.476
687.065,1.474
687.327,1.475
687.590,1.479
687.852,1.477
688.115,1.467
688.377,1.458
688.639,1.454
688.902,1.458
689.164,1.469
689.426,1.486
689.689,1.501
689.951,1.503
690.213,1.500
690.475,1.498
690.737,1.495
691.000,1.488
691.262,1.482
691.524,1.487
691.786,1.502
692.048,1.513
692.310,1.507
692.572,1.487
692.834,1.467
693.096,1.466
693.358,1.480
693.620,1.499
693.882,1.512
694.144,1.509
694.406,1.496
694.668,1.486
694.930,1.479
695.192,1.476
695.453,1.475
695.715,1.476
695.977,1.475
696.239,1.468
696.501,1.468
696.762,1.478
697.024,1.486
697.286,1.481
697.548,1.474
697.809,1.472
698.071,1.474
698.333,1.471
698.594,1.467
698.856,1.470
699.118,1.476
699.379,1.484
699.641,1.494
699.902,1.503
700.164,1.505
700.426,1.496
700.687,1.487
700.949,1.485
701.210,1.487
701.472,1.484
701.733,1.473
701.995,1.468
702.256,1.468
702.518,1.474
702.779,1.477
703.041,1.491
703.302,1.507
703.563,1.510
703.825,1.499
704.086,1.484
704.348,1.475
704.609,1.471
704.871,1.479
705.132,1.491
705.393,1.491
705.655,1.483
705.916,1.479
706.177,1.481
706.439,1.484
706.700,1.480
706.961,1.475
707.223,1.473
707.484,1.462
707.745,1.453
708.007,1.440
708.268,1.430
708.529,1.419
708.790,1.406
709.052,1.399
709.313,1.401
709.574,1.402
709.835,1.402
710.097,1.391
710.358,1.377
710.619,1.364
710.881,1.358
711.142,1.356
711.403,1.353
711.664,1.346
711.926,1.335
712.187,1.331
712.448,1.336
712.709,1.352
712.970,1.366
713.232,1.373
713.493,1.375
713.754,1.374
714.015,1.378
714.277,1.386
714.538,1.396
714.799,1.407
715.060,1.411
715.322,1.406
715.583,1.393
715.844,1.377
716.105,1.366
716.367,1.361
716.628,1.365
716.889,1.368
717.150,1.365
717.411,1.356
717.673,1.354
717.934,1.358
718.195,1.365
718.457,1.363
718.718,1.354
718.979,1.345
719.240,1.346
719.502,1.355
719.763,1.365
720.024,1.370
720.286,1.370
720.547,1.365
720.808,1.362
721.069,1.359
721.331,1.364
721.592,1.371
721.853,1.373
722.115,1.372
722.376,1.369
722.638,1.370
722.899,1.371
723.160,1.368
723.422,1.361
723.683,1.357
723.944,1.361
724.206,1.364
724.467,1.363
724.729,1.361
724.990,1.368
725.252,1.375
725.513,1.368
725.775,1.352
726.036,1.340
726.298,1.340
726.559,1.350
726.821,1.354
727.082,1.357
727.344,1.353
727.605,1.347
727.867,1.337
728.128,1.333
728.390,1.333
728.652,1.345
728.913,1.358
729.175,1.369
729.436,1.370
729.698,1.371
729.960,1.369
730.221,1.364
730.483,1.350
730.745,1.343
731.007,1.341
731.268,1.343
731.530,1.346
731.792,1.349
732.054,1.357
732.315,1.361
732.577,1.366
732.839,1.361
733.101,1.353
733.363,1.347
733.625,1.345
733.887,1.347
734.149,1.343
734.411,1.345
734.673,1.348
734.935,1.350
735.197,1.346
735.459,1.349
735.721,1.354
735.983,1.355
736.245,1.344
736.507,1.340
736.769,1.344
737.031,1.353
737.293,1.352
737.555,1.346
737.818,1.338
738.080,1.330
738.342,1.328
738.604,1.327
738.867,1.332
739.129,1.336
739.391,1.340
739.654,1.340
739.916,1.340
740.178,1.340
740.441,1.345
740.703,1.349
740.966,1.350
741.228,1.346
741.491,1.343
741.753,1.344
742.016,1.346
742.278,1.347
742.541,1.349
742.804,1.353
743.066,1.358
743.329,1.356
743.592,1.349
743.854,1.348
744.117,1.353
744.380,1.357
744.643,1.352
744.905,1.347
745.168,1.344
745.431,1.342
745.694,1.337
745.957,1.333
746.220,1.327
746.483,1.325
746.746,1.328
747.009,1.342
747.272,1.363
