Wavelength (nm),Intensity Source #84,,C:/Users/Brend/Desktop/LED Spectras v2/Spectrometer Data.sp,,,Source #84,
379.792,1.865,,2018-06-14 09:44:38,,Integration Time,161 ms,
380.000,1.864,,Analyze Light,,Number of Scans to Average,25,
380.209,1.865,,,,Smoothing,1,
380.418,1.880
380.627,1.897
380.837,1.907
381.048,1.914
381.259,1.915
381.471,1.915
381.683,1.915
381.896,1.923
382.110,1.927
382.324,1.938
382.538,1.950
382.753,1.963
382.969,1.957
383.185,1.948
383.402,1.943
383.619,1.951
383.837,1.964
384.055,1.988
384.274,2.013
384.493,2.034
384.712,2.041
384.932,2.044
385.153,2.046
385.374,2.047
385.596,2.052
385.818,2.069
386.040,2.089
386.263,2.109
386.487,2.116
386.710,2.121
386.935,2.112
387.159,2.108
387.385,2.104
387.610,2.107
387.836,2.111
388.063,2.120
388.289,2.130
388.517,2.135
388.744,2.133
388.972,2.144
389.201,2.153
389.430,2.164
389.659,2.170
389.889,2.182
390.119,2.192
390.349,2.202
390.580,2.212
390.811,2.220
391.042,2.221
391.274,2.227
391.507,2.236
391.739,2.242
391.972,2.238
392.205,2.243
392.439,2.264
392.673,2.288
392.907,2.303
393.142,2.311
393.377,2.316
393.612,2.324
393.848,2.329
394.084,2.340
394.320,2.344
394.557,2.352
394.794,2.356
395.031,2.368
395.269,2.381
395.507,2.397
395.745,2.400
395.983,2.400
396.222,2.401
396.461,2.421
396.700,2.446
396.940,2.468
397.180,2.479
397.420,2.479
397.660,2.475
397.901,2.471
398.142,2.476
398.383,2.481
398.625,2.484
398.866,2.493
399.108,2.513
399.351,2.544
399.593,2.550
399.836,2.547
400.079,2.535
400.322,2.533
400.566,2.528
400.809,2.528
401.053,2.537
401.298,2.550
401.542,2.566
401.787,2.582
402.031,2.596
402.277,2.613
402.522,2.622
402.767,2.627
403.013,2.616
403.259,2.617
403.505,2.619
403.752,2.628
403.998,2.631
404.245,2.648
404.492,2.662
404.739,2.672
404.986,2.673
405.234,2.683
405.482,2.695
405.730,2.700
405.978,2.706
406.226,2.709
406.475,2.705
406.723,2.707
406.972,2.720
407.221,2.746
407.470,2.759
407.720,2.766
407.969,2.760
408.219,2.766
408.469,2.773
408.719,2.788
408.969,2.789
409.219,2.797
409.470,2.804
409.720,2.820
409.971,2.828
410.222,2.840
410.473,2.843
410.724,2.846
410.976,2.854
411.227,2.873
411.479,2.888
411.731,2.898
411.983,2.891
412.235,2.895
412.487,2.897
412.740,2.910
412.992,2.916
413.245,2.921
413.497,2.919
413.750,2.922
414.003,2.921
414.257,2.921
414.510,2.917
414.763,2.930
415.017,2.943
415.270,2.951
415.524,2.945
415.778,2.945
416.032,2.944
416.286,2.958
416.540,2.968
416.794,2.984
417.049,2.988
417.303,2.996
417.558,3.001
417.812,3.004
418.067,3.003
418.322,3.005
418.577,3.004
418.832,3.003
419.088,2.992
419.343,2.993
419.598,2.990
419.854,2.998
420.109,3.001
420.365,3.021
420.621,3.032
420.876,3.048
421.132,3.049
421.388,3.053
421.645,3.045
421.901,3.044
422.157,3.043
422.413,3.057
422.670,3.070
422.926,3.090
423.183,3.098
423.439,3.114
423.696,3.127
423.953,3.161
424.210,3.187
424.467,3.199
424.724,3.196
424.981,3.195
425.238,3.213
425.495,3.251
425.753,3.287
426.010,3.320
426.267,3.341
426.525,3.380
426.782,3.412
427.040,3.451
427.298,3.487
427.555,3.538
427.813,3.586
428.071,3.640
428.329,3.696
428.587,3.759
428.845,3.818
429.103,3.878
429.361,3.941
429.619,4.013
429.878,4.086
430.136,4.175
430.394,4.267
430.653,4.384
430.911,4.509
431.170,4.643
431.428,4.759
431.687,4.872
431.946,4.986
432.204,5.119
432.463,5.259
432.722,5.405
432.981,5.551
433.240,5.719
433.499,5.899
433.758,6.105
434.017,6.296
434.276,6.493
434.535,6.681
434.794,6.892
435.053,7.112
435.312,7.353
435.572,7.606
435.831,7.883
436.090,8.166
436.350,8.457
436.609,8.754
436.869,9.071
437.128,9.388
437.388,9.712
437.647,10.041
437.907,10.397
438.166,10.770
438.426,11.155
438.686,11.558
438.946,11.979
439.205,12.426
439.465,12.897
439.725,13.388
439.985,13.906
440.245,14.429
440.505,14.972
440.765,15.521
441.025,16.094
441.285,16.694
441.545,17.308
441.805,17.937
442.065,18.579
442.325,19.250
442.585,19.984
442.846,20.741
443.106,21.559
443.366,22.391
443.626,23.267
443.887,24.172
444.147,25.127
444.407,26.127
444.668,27.166
444.928,28.248
445.189,29.385
445.449,30.558
445.710,31.786
445.970,33.062
446.231,34.398
446.491,35.784
446.752,37.219
447.012,38.711
447.273,40.262
447.534,41.848
447.794,43.471
448.055,45.146
448.316,46.919
448.577,48.778
448.837,50.696
449.098,52.651
449.359,54.632
449.620,56.639
449.881,58.668
450.142,60.728
450.403,62.826
450.664,64.962
450.924,67.137
451.185,69.322
451.446,71.509
451.707,73.667
451.969,75.807
452.230,77.893
452.491,79.912
452.752,81.792
453.013,83.477
453.274,84.921
453.535,86.132
453.796,87.154
454.058,88.020
454.319,88.785
454.580,89.447
454.841,90.032
455.103,90.536
455.364,90.961
455.625,91.320
455.887,91.605
456.148,91.830
456.409,91.992
456.671,92.102
456.932,92.163
457.194,92.168
457.455,92.124
457.716,92.039
457.978,91.917
458.239,91.754
458.501,91.551
458.763,91.294
459.024,90.970
459.286,90.576
459.547,90.115
459.809,89.576
460.071,88.957
460.332,88.252
460.594,87.469
460.856,86.572
461.117,85.532
461.379,84.313
461.641,82.904
461.903,81.337
462.164,79.658
462.426,77.938
462.688,76.202
462.950,74.462
463.212,72.722
463.474,70.998
463.736,69.298
463.998,67.656
464.260,66.069
464.522,64.561
464.784,63.104
465.046,61.705
465.308,60.357
465.570,59.076
465.832,57.862
466.094,56.708
466.356,55.598
466.618,54.518
466.880,53.479
467.142,52.473
467.405,51.509
467.667,50.594
467.929,49.726
468.191,48.893
468.454,48.065
468.716,47.237
468.978,46.410
469.241,45.580
469.503,44.784
469.765,44.009
470.028,43.265
470.290,42.526
470.552,41.820
470.815,41.119
471.077,40.411
471.340,39.681
471.602,38.948
471.865,38.213
472.128,37.477
472.390,36.761
472.653,36.036
472.915,35.311
473.178,34.550
473.441,33.800
473.703,33.034
473.966,32.290
474.229,31.532
474.492,30.784
474.755,30.017
475.017,29.274
475.280,28.527
475.543,27.805
475.806,27.069
476.069,26.351
476.332,25.629
476.595,24.935
476.858,24.242
477.121,23.566
477.384,22.902
477.647,22.258
477.910,21.635
478.173,21.031
478.436,20.433
478.699,19.868
478.962,19.327
479.226,18.833
479.489,18.328
479.752,17.837
480.015,17.340
480.279,16.874
480.542,16.412
480.805,15.970
481.069,15.533
481.332,15.122
481.595,14.727
481.859,14.378
482.122,14.029
482.386,13.695
482.649,13.351
482.913,13.031
483.177,12.707
483.440,12.396
483.704,12.089
483.967,11.819
484.231,11.567
484.495,11.334
484.759,11.087
485.022,10.833
485.286,10.574
485.550,10.324
485.814,10.063
486.078,9.811
486.342,9.564
486.606,9.349
486.869,9.139
487.133,8.950
487.397,8.764
487.662,8.583
487.926,8.385
488.190,8.183
488.454,7.968
488.718,7.765
488.982,7.553
489.246,7.359
489.511,7.160
489.775,6.980
490.039,6.801
490.304,6.630
490.568,6.450
490.832,6.278
491.097,6.108
491.361,5.952
491.626,5.793
491.890,5.641
492.155,5.490
492.419,5.356
492.684,5.210
492.949,5.070
493.213,4.923
493.478,4.797
493.743,4.655
494.008,4.507
494.272,4.360
494.537,4.242
494.802,4.138
495.067,4.050
495.332,3.965
495.597,3.887
495.862,3.789
496.127,3.694
496.392,3.595
496.657,3.507
496.922,3.420
497.187,3.347
497.452,3.284
497.718,3.232
497.983,3.164
498.248,3.087
498.513,3.003
498.779,2.950
499.044,2.907
499.310,2.857
499.575,2.790
499.841,2.735
500.106,2.686
500.372,2.637
500.637,2.587
500.903,2.558
501.168,2.529
501.434,2.491
501.700,2.437
501.966,2.398
502.231,2.365
502.497,2.342
502.763,2.308
503.029,2.274
503.295,2.242
503.561,2.216
503.827,2.194
504.093,2.170
504.359,2.140
504.625,2.113
504.891,2.086
505.157,2.068
505.423,2.042
505.690,2.012
505.956,1.985
506.222,1.970
506.489,1.969
506.755,1.969
507.021,1.965
507.288,1.958
507.554,1.942
507.821,1.923
508.087,1.904
508.354,1.897
508.621,1.884
508.887,1.863
509.154,1.839
509.421,1.825
509.687,1.811
509.954,1.793
510.221,1.774
510.488,1.769
510.755,1.772
511.022,1.777
511.289,1.765
511.556,1.746
511.823,1.727
512.090,1.724
512.357,1.716
512.624,1.709
512.891,1.695
513.159,1.682
513.426,1.671
513.693,1.662
513.960,1.658
514.228,1.658
514.495,1.654
514.763,1.645
515.030,1.630
515.298,1.619
515.565,1.619
515.833,1.625
516.100,1.627
516.368,1.622
516.636,1.611
516.904,1.602
517.171,1.586
517.439,1.578
517.707,1.572
517.975,1.577
518.243,1.583
518.511,1.580
518.779,1.561
519.047,1.551
519.315,1.551
519.583,1.553
519.851,1.538
520.119,1.521
520.387,1.510
520.656,1.506
520.924,1.505
521.192,1.511
521.461,1.513
521.729,1.520
521.997,1.527
522.266,1.530
522.534,1.522
522.803,1.514
523.071,1.503
523.340,1.486
523.609,1.465
523.877,1.450
524.146,1.451
524.415,1.460
524.684,1.472
524.952,1.472
525.221,1.464
525.490,1.466
525.759,1.478
526.028,1.483
526.297,1.471
526.566,1.457
526.835,1.450
527.104,1.452
527.373,1.453
527.642,1.451
527.912,1.442
528.181,1.433
528.450,1.431
528.719,1.441
528.989,1.458
529.258,1.473
529.528,1.474
529.797,1.465
530.067,1.460
530.336,1.457
530.606,1.449
530.875,1.433
531.145,1.424
531.414,1.430
531.684,1.442
531.954,1.444
532.224,1.436
532.493,1.419
532.763,1.409
533.033,1.409
533.303,1.418
533.573,1.424
533.843,1.416
534.113,1.408
534.383,1.402
534.653,1.406
534.923,1.412
535.193,1.416
535.463,1.426
535.733,1.435
536.004,1.442
536.274,1.442
536.544,1.433
536.814,1.422
537.085,1.413
537.355,1.425
537.626,1.443
537.896,1.453
538.166,1.448
538.437,1.438
538.707,1.431
538.978,1.432
539.249,1.438
539.519,1.442
539.790,1.436
540.061,1.430
540.331,1.433
540.602,1.445
540.873,1.457
541.144,1.460
541.414,1.458
541.685,1.452
541.956,1.446
542.227,1.445
542.498,1.440
542.769,1.438
543.040,1.443
543.311,1.455
543.582,1.469
543.853,1.472
544.124,1.476
544.396,1.479
544.667,1.483
544.938,1.479
545.209,1.459
545.480,1.443
545.752,1.432
546.023,1.435
546.294,1.427
546.566,1.415
546.837,1.400
547.109,1.394
547.380,1.391
547.652,1.393
547.923,1.398
548.195,1.407
548.466,1.416
548.738,1.422
549.009,1.418
549.281,1.407
549.553,1.390
549.824,1.373
550.096,1.365
550.368,1.366
550.640,1.373
550.911,1.380
551.183,1.395
551.455,1.418
551.727,1.431
551.999,1.426
552.271,1.407
552.543,1.390
552.815,1.381
553.087,1.386
553.359,1.394
553.631,1.400
553.903,1.399
554.175,1.401
554.447,1.408
554.719,1.414
554.991,1.415
555.263,1.410
555.535,1.402
555.808,1.396
556.080,1.389
556.352,1.386
556.624,1.382
556.897,1.379
557.169,1.377
557.441,1.376
557.714,1.372
557.986,1.371
558.258,1.369
558.531,1.377
558.803,1.383
559.076,1.390
559.348,1.386
559.621,1.379
559.893,1.374
560.166,1.374
560.438,1.373
560.711,1.367
560.983,1.361
561.256,1.360
561.528,1.368
561.801,1.376
562.074,1.386
562.346,1.397
562.619,1.405
562.892,1.404
563.164,1.397
563.437,1.396
563.710,1.395
563.983,1.386
564.255,1.374
564.528,1.374
564.801,1.389
565.074,1.398
565.346,1.395
565.619,1.386
565.892,1.386
566.165,1.382
566.438,1.372
566.711,1.362
566.984,1.356
567.257,1.358
567.529,1.364
567.802,1.381
568.075,1.396
568.348,1.398
568.621,1.396
568.894,1.389
569.167,1.384
569.440,1.372
569.713,1.363
569.986,1.364
570.259,1.365
570.532,1.370
570.805,1.367
571.078,1.368
571.351,1.371
571.625,1.374
571.898,1.368
572.171,1.358
572.444,1.354
572.717,1.366
572.990,1.382
573.263,1.386
573.536,1.378
573.809,1.361
574.083,1.353
574.356,1.356
574.629,1.372
574.902,1.380
575.175,1.376
575.448,1.364
575.721,1.354
575.995,1.350
576.268,1.349
576.541,1.358
576.814,1.368
577.087,1.376
577.361,1.376
577.634,1.371
577.907,1.359
578.180,1.343
578.453,1.336
578.727,1.340
579.000,1.350
579.273,1.361
579.546,1.376
579.820,1.390
580.093,1.389
580.366,1.380
580.639,1.365
580.913,1.360
581.186,1.356
581.459,1.354
581.732,1.346
582.005,1.342
582.279,1.340
582.552,1.344
582.825,1.347
583.098,1.349
583.372,1.353
583.645,1.358
583.918,1.365
584.191,1.365
584.464,1.361
584.738,1.358
585.011,1.358
585.284,1.357
585.557,1.352
585.831,1.350
586.104,1.362
586.377,1.383
586.650,1.398
586.923,1.398
587.196,1.388
587.470,1.374
587.743,1.363
588.016,1.356
588.289,1.359
588.562,1.374
588.835,1.381
589.109,1.379
589.382,1.366
589.655,1.352
589.928,1.345
590.201,1.342
590.474,1.351
590.747,1.362
591.020,1.373
591.293,1.377
591.567,1.375
591.840,1.370
592.113,1.361
592.386,1.346
592.659,1.336
592.932,1.335
593.205,1.347
593.478,1.353
593.751,1.350
594.024,1.341
594.297,1.332
594.570,1.332
594.843,1.338
595.116,1.344
595.389,1.345
595.662,1.339
595.934,1.338
596.207,1.347
596.480,1.362
596.753,1.377
597.026,1.375
597.299,1.368
597.572,1.360
597.844,1.355
598.117,1.348
598.390,1.343
598.663,1.341
598.936,1.342
599.208,1.343
599.481,1.351
599.754,1.355
600.026,1.350
600.299,1.338
600.572,1.332
600.844,1.331
601.117,1.328
601.390,1.323
601.662,1.323
601.935,1.322
602.207,1.321
602.480,1.320
602.752,1.320
603.025,1.321
603.297,1.324
603.570,1.335
603.842,1.348
604.115,1.360
604.387,1.365
604.660,1.356
604.932,1.347
605.204,1.346
605.477,1.357
605.749,1.371
606.021,1.383
606.294,1.388
606.566,1.381
606.838,1.371
607.110,1.365
607.383,1.368
607.655,1.373
607.927,1.383
608.199,1.396
608.471,1.406
608.743,1.403
609.015,1.399
609.287,1.395
609.559,1.395
609.831,1.395
610.103,1.396
610.375,1.392
610.647,1.384
610.919,1.374
611.191,1.371
611.463,1.374
611.735,1.376
612.007,1.369
612.278,1.357
612.550,1.348
612.822,1.353
613.094,1.362
613.365,1.365
613.637,1.368
613.909,1.368
614.180,1.371
614.452,1.365
614.723,1.355
614.995,1.342
615.266,1.339
615.538,1.351
615.809,1.366
616.081,1.369
616.352,1.359
616.623,1.349
616.895,1.344
617.166,1.340
617.437,1.337
617.709,1.340
617.980,1.349
618.251,1.359
618.522,1.366
618.793,1.378
619.065,1.390
619.336,1.384
619.607,1.368
619.878,1.361
620.149,1.371
620.420,1.378
620.691,1.374
620.962,1.370
621.232,1.372
621.503,1.365
621.774,1.356
622.045,1.351
622.316,1.363
622.586,1.381
622.857,1.393
623.128,1.393
623.398,1.386
623.669,1.375
623.940,1.360
624.210,1.348
624.481,1.351
624.751,1.355
625.021,1.355
625.292,1.347
625.562,1.349
625.833,1.350
626.103,1.343
626.373,1.329
626.643,1.325
626.914,1.331
627.184,1.343
627.454,1.347
627.724,1.347
627.994,1.348
628.264,1.347
628.534,1.342
628.804,1.335
629.074,1.335
629.344,1.339
629.614,1.339
629.884,1.329
630.154,1.318
630.424,1.309
630.693,1.299
630.963,1.287
631.233,1.278
631.502,1.284
631.772,1.299
632.041,1.316
632.311,1.325
632.581,1.332
632.850,1.332
633.119,1.324
633.389,1.310
633.658,1.300
633.928,1.305
634.197,1.317
634.466,1.334
634.735,1.341
635.004,1.338
635.274,1.333
635.543,1.329
635.812,1.329
636.081,1.329
636.350,1.329
636.619,1.328
636.888,1.325
637.157,1.324
637.426,1.329
637.694,1.331
637.963,1.327
638.232,1.320
638.501,1.317
638.769,1.322
639.038,1.331
639.307,1.343
639.575,1.351
639.844,1.351
640.112,1.342
640.381,1.325
640.649,1.319
640.917,1.321
641.186,1.325
641.454,1.324
641.722,1.320
641.991,1.318
642.259,1.314
642.527,1.312
642.795,1.311
643.063,1.306
643.331,1.304
643.599,1.305
643.867,1.311
644.135,1.315
644.403,1.323
644.671,1.329
644.939,1.337
645.206,1.342
645.474,1.350
645.742,1.345
646.009,1.330
646.277,1.318
646.545,1.318
646.812,1.332
647.080,1.345
647.347,1.354
647.615,1.350
647.882,1.335
648.149,1.318
648.417,1.310
648.684,1.319
648.951,1.334
649.219,1.344
649.486,1.344
649.753,1.335
650.020,1.324
650.287,1.318
650.554,1.318
650.821,1.318
651.088,1.319
651.355,1.326
651.622,1.331
651.889,1.332
652.155,1.326
652.422,1.324
652.689,1.327
652.956,1.328
653.222,1.332
653.489,1.343
653.755,1.351
654.022,1.348
654.288,1.332
654.555,1.321
654.821,1.321
655.088,1.331
655.354,1.342
655.620,1.351
655.887,1.353
656.153,1.354
656.419,1.354
656.685,1.355
656.951,1.353
657.217,1.347
657.483,1.338
657.749,1.328
658.015,1.326
658.281,1.326
658.547,1.320
658.813,1.311
659.079,1.305
659.345,1.305
659.610,1.307
659.876,1.308
660.142,1.309
660.407,1.310
660.673,1.316
660.939,1.324
661.204,1.323
661.470,1.316
661.735,1.310
662.000,1.314
662.266,1.318
662.531,1.322
662.796,1.320
663.062,1.311
663.327,1.300
663.592,1.299
663.857,1.310
664.122,1.316
664.388,1.319
664.653,1.320
664.918,1.325
665.183,1.323
665.448,1.321
665.712,1.318
665.977,1.323
666.242,1.323
666.507,1.314
666.772,1.299
667.037,1.290
667.301,1.293
667.566,1.301
667.831,1.310
668.095,1.320
668.360,1.326
668.624,1.323
668.889,1.323
669.153,1.317
669.418,1.314
669.682,1.313
669.946,1.319
670.211,1.328
670.475,1.336
670.739,1.344
671.004,1.359
671.268,1.384
671.532,1.409
671.796,1.398
672.060,1.373
672.324,1.349
672.588,1.358
672.852,1.375
673.116,1.414
673.380,1.440
673.644,1.418
673.908,1.367
674.172,1.323
674.436,1.323
674.700,1.327
674.963,1.333
675.227,1.334
675.491,1.328
675.754,1.323
676.018,1.320
676.282,1.328
676.545,1.328
676.809,1.322
677.072,1.310
677.336,1.305
677.599,1.310
677.863,1.314
678.126,1.318
678.389,1.327
678.653,1.338
678.916,1.336
679.179,1.320
679.442,1.311
679.706,1.314
679.969,1.320
680.232,1.325
680.495,1.337
680.758,1.349
681.021,1.350
681.284,1.340
681.547,1.330
681.810,1.332
682.073,1.345
682.336,1.353
682.599,1.350
682.862,1.343
683.125,1.345
683.388,1.351
683.651,1.352
683.913,1.347
684.176,1.336
684.439,1.322
684.702,1.306
684.964,1.294
685.227,1.296
685.490,1.311
685.752,1.334
686.015,1.342
686.277,1.338
686.540,1.325
686.802,1.318
687.065,1.320
687.327,1.327
687.590,1.331
687.852,1.320
688.115,1.303
688.377,1.295
688.639,1.295
688.902,1.301
689.164,1.309
689.426,1.322
689.689,1.332
689.951,1.334
690.213,1.332
690.475,1.329
690.737,1.325
691.000,1.319
691.262,1.315
691.524,1.320
691.786,1.332
692.048,1.347
692.310,1.347
692.572,1.335
692.834,1.316
693.096,1.307
693.358,1.310
693.620,1.319
693.882,1.328
694.144,1.332
694.406,1.329
694.668,1.321
694.930,1.315
695.192,1.313
695.453,1.315
695.715,1.319
695.977,1.319
696.239,1.316
696.501,1.313
696.762,1.318
697.024,1.318
697.286,1.313
697.548,1.306
697.809,1.303
698.071,1.303
698.333,1.302
698.594,1.302
698.856,1.307
699.118,1.311
699.379,1.319
699.641,1.329
699.902,1.338
700.164,1.337
700.426,1.329
700.687,1.322
700.949,1.320
701.210,1.318
701.472,1.309
701.733,1.300
701.995,1.295
702.256,1.297
702.518,1.299
702.779,1.300
703.041,1.313
703.302,1.326
703.563,1.328
703.825,1.317
704.086,1.311
704.348,1.312
704.609,1.320
704.871,1.332
705.132,1.345
705.393,1.340
705.655,1.330
705.916,1.323
706.177,1.325
706.439,1.326
706.700,1.322
706.961,1.317
707.223,1.311
707.484,1.294
707.745,1.281
708.007,1.267
708.268,1.260
708.529,1.249
708.790,1.234
709.052,1.224
709.313,1.224
709.574,1.234
709.835,1.244
710.097,1.242
710.358,1.229
710.619,1.213
710.881,1.204
711.142,1.202
711.403,1.199
711.664,1.198
711.926,1.193
712.187,1.195
712.448,1.199
712.709,1.211
712.970,1.220
713.232,1.227
713.493,1.233
713.754,1.236
714.015,1.242
714.277,1.243
714.538,1.248
714.799,1.255
715.060,1.263
715.322,1.267
715.583,1.264
715.844,1.254
716.105,1.238
716.367,1.226
716.628,1.221
716.889,1.223
717.150,1.222
717.411,1.216
717.673,1.215
717.934,1.217
718.195,1.221
718.457,1.216
718.718,1.208
718.979,1.203
719.240,1.209
719.502,1.219
719.763,1.227
720.024,1.228
720.286,1.226
720.547,1.215
720.808,1.205
721.069,1.201
721.331,1.212
721.592,1.228
721.853,1.238
722.115,1.245
722.376,1.247
722.638,1.244
722.899,1.238
723.160,1.228
723.422,1.224
723.683,1.220
723.944,1.224
724.206,1.225
724.467,1.224
724.729,1.222
724.990,1.229
725.252,1.236
725.513,1.230
725.775,1.215
726.036,1.204
726.298,1.203
726.559,1.209
726.821,1.213
727.082,1.219
727.344,1.221
727.605,1.218
727.867,1.213
728.128,1.213
728.390,1.213
728.652,1.218
728.913,1.227
729.175,1.235
729.436,1.238
729.698,1.237
729.960,1.233
730.221,1.229
730.483,1.216
730.745,1.212
731.007,1.210
731.268,1.211
731.530,1.210
731.792,1.210
732.054,1.216
732.315,1.224
732.577,1.230
732.839,1.224
733.101,1.215
733.363,1.207
733.625,1.208
733.887,1.213
734.149,1.215
734.411,1.219
734.673,1.219
734.935,1.218
735.197,1.213
735.459,1.218
735.721,1.227
735.983,1.230
736.245,1.221
736.507,1.217
736.769,1.223
737.031,1.230
737.293,1.222
737.555,1.209
737.818,1.201
738.080,1.203
738.342,1.209
738.604,1.209
738.867,1.207
739.129,1.200
739.391,1.196
739.654,1.194
739.916,1.200
740.178,1.210
740.441,1.221
740.703,1.227
740.966,1.222
741.228,1.212
741.491,1.206
741.753,1.210
742.016,1.212
742.278,1.215
742.541,1.216
742.804,1.221
743.066,1.227
743.329,1.228
743.592,1.224
743.854,1.223
744.117,1.226
744.380,1.231
744.643,1.227
744.905,1.220
745.168,1.217
745.431,1.216
745.694,1.214
745.957,1.211
746.220,1.208
746.483,1.204
746.746,1.199
747.009,1.206
