Wavelength (nm),Intensity Source #119,,C:/Users/Brend/Desktop/LED Spectras v2/Spectrometer Data.sp,,,Source #119,
379.792,2.047,,2018-06-14 10:55:39,,Integration Time,148 ms,
380.000,2.041,,Analyze Light,,Number of Scans to Average,25,
380.209,2.035,,,,Smoothing,1,
380.418,2.043
380.627,2.062
380.837,2.082
381.048,2.096
381.259,2.100
381.471,2.100
381.683,2.105
381.896,2.115
382.110,2.124
382.324,2.141
382.538,2.163
382.753,2.183
382.969,2.180
383.185,2.168
383.402,2.161
383.619,2.176
383.837,2.196
384.055,2.222
384.274,2.239
384.493,2.247
384.712,2.249
384.932,2.253
385.153,2.261
385.374,2.269
385.596,2.277
385.818,2.295
386.040,2.318
386.263,2.340
386.487,2.345
386.710,2.342
386.935,2.329
387.159,2.326
387.385,2.323
387.610,2.328
387.836,2.334
388.063,2.347
388.289,2.358
388.517,2.364
388.744,2.363
388.972,2.373
389.201,2.383
389.430,2.397
389.659,2.406
389.889,2.421
390.119,2.431
390.349,2.440
390.580,2.448
390.811,2.454
391.042,2.459
391.274,2.468
391.507,2.479
391.739,2.484
391.972,2.482
392.205,2.489
392.439,2.505
392.673,2.523
392.907,2.538
393.142,2.553
393.377,2.569
393.612,2.588
393.848,2.599
394.084,2.608
394.320,2.609
394.557,2.618
394.794,2.623
395.031,2.635
395.269,2.644
395.507,2.660
395.745,2.667
395.983,2.676
396.222,2.686
396.461,2.709
396.700,2.736
396.940,2.756
397.180,2.762
397.420,2.756
397.660,2.748
397.901,2.744
398.142,2.752
398.383,2.753
398.625,2.753
398.866,2.757
399.108,2.777
399.351,2.810
399.593,2.823
399.836,2.827
400.079,2.815
400.322,2.811
400.566,2.804
400.809,2.806
401.053,2.812
401.298,2.823
401.542,2.833
401.787,2.848
402.031,2.860
402.277,2.874
402.522,2.878
402.767,2.889
403.013,2.891
403.259,2.903
403.505,2.908
403.752,2.918
403.998,2.924
404.245,2.940
404.492,2.956
404.739,2.968
404.986,2.975
405.234,2.985
405.482,2.992
405.730,2.994
405.978,2.999
406.226,3.008
406.475,3.008
406.723,3.007
406.972,3.010
407.221,3.027
407.470,3.042
407.720,3.056
407.969,3.050
408.219,3.055
408.469,3.060
408.719,3.079
408.969,3.087
409.219,3.106
409.470,3.121
409.720,3.136
409.971,3.137
410.222,3.148
410.473,3.153
410.724,3.159
410.976,3.162
411.227,3.172
411.479,3.179
411.731,3.188
411.983,3.190
412.235,3.200
412.487,3.203
412.740,3.214
412.992,3.215
413.245,3.222
413.497,3.224
413.750,3.225
414.003,3.217
414.257,3.212
414.510,3.212
414.763,3.222
415.017,3.233
415.270,3.242
415.524,3.237
415.778,3.231
416.032,3.223
416.286,3.233
416.540,3.235
416.794,3.242
417.049,3.237
417.303,3.239
417.558,3.240
417.812,3.245
418.067,3.247
418.322,3.249
418.577,3.246
418.832,3.243
419.088,3.231
419.343,3.230
419.598,3.223
419.854,3.229
420.109,3.230
420.365,3.245
420.621,3.253
420.876,3.262
421.132,3.262
421.388,3.263
421.645,3.265
421.901,3.280
422.157,3.294
422.413,3.312
422.670,3.320
422.926,3.334
423.183,3.339
423.439,3.361
423.696,3.388
423.953,3.437
424.210,3.479
424.467,3.508
424.724,3.521
424.981,3.530
425.238,3.556
425.495,3.603
425.753,3.654
426.010,3.705
426.267,3.746
426.525,3.798
426.782,3.853
427.040,3.920
427.298,3.991
427.555,4.078
427.813,4.162
428.071,4.251
428.329,4.336
428.587,4.427
428.845,4.524
429.103,4.636
429.361,4.754
429.619,4.877
429.878,4.995
430.136,5.130
430.394,5.270
430.653,5.435
430.911,5.609
431.170,5.792
431.428,5.962
431.687,6.145
431.946,6.330
432.204,6.536
432.463,6.744
432.722,6.972
432.981,7.204
433.240,7.455
433.499,7.717
433.758,8.006
434.017,8.285
434.276,8.575
434.535,8.862
434.794,9.176
435.053,9.501
435.312,9.847
435.572,10.197
435.831,10.576
436.090,10.976
436.350,11.401
436.609,11.830
436.869,12.272
437.128,12.715
437.388,13.177
437.647,13.656
437.907,14.168
438.166,14.690
438.426,15.233
438.686,15.787
438.946,16.373
439.205,16.987
439.465,17.634
439.725,18.307
439.985,18.999
440.245,19.699
440.505,20.425
440.765,21.174
441.025,21.946
441.285,22.753
441.545,23.591
441.805,24.480
442.065,25.394
442.325,26.355
442.585,27.385
442.846,28.479
443.106,29.650
443.366,30.861
443.626,32.126
443.887,33.431
444.147,34.802
444.407,36.236
444.668,37.739
444.928,39.308
445.189,40.968
445.449,42.714
445.710,44.556
445.970,46.488
446.231,48.513
446.491,50.620
446.752,52.801
447.012,55.050
447.273,57.390
447.534,59.786
447.794,62.245
448.055,64.750
448.316,67.341
448.577,70.021
448.837,72.750
449.098,75.524
449.359,78.260
449.620,80.903
449.881,83.308
450.142,85.390
450.403,87.155
450.664,88.722
450.924,90.220
451.185,91.698
451.446,93.080
451.707,94.123
451.969,94.743
452.230,94.964
452.491,95.025
452.752,95.016
453.013,94.997
453.274,94.974
453.535,94.947
453.796,94.915
454.058,94.877
454.319,94.833
454.580,94.786
454.841,94.736
455.103,94.678
455.364,94.614
455.625,94.541
455.887,94.461
456.148,94.364
456.409,94.251
456.671,94.115
456.932,93.953
457.194,93.745
457.455,93.495
457.716,93.183
457.978,92.810
458.239,92.333
458.501,91.754
458.763,91.039
459.024,90.202
459.286,89.214
459.547,88.084
459.809,86.756
460.071,85.160
460.332,83.254
460.594,81.126
460.856,78.918
461.117,76.724
461.379,74.599
461.641,72.553
461.903,70.600
462.164,68.727
462.426,66.940
462.688,65.259
462.950,63.675
463.212,62.184
463.474,60.766
463.736,59.406
463.998,58.130
464.260,56.947
464.522,55.872
464.784,54.857
465.046,53.897
465.308,52.996
465.570,52.153
465.832,51.361
466.094,50.571
466.356,49.805
466.618,49.035
466.880,48.277
467.142,47.500
467.405,46.742
467.667,46.008
467.929,45.291
468.191,44.570
468.454,43.819
468.716,43.052
468.978,42.240
469.241,41.404
469.503,40.551
469.765,39.704
470.028,38.875
470.290,38.043
470.552,37.208
470.815,36.340
471.077,35.458
471.340,34.571
471.602,33.704
471.865,32.852
472.128,32.002
472.390,31.162
472.653,30.316
472.915,29.478
473.178,28.633
473.441,27.792
473.703,26.954
473.966,26.152
474.229,25.354
474.492,24.580
474.755,23.795
475.017,23.067
475.280,22.365
475.543,21.709
475.806,21.053
476.069,20.409
476.332,19.776
476.595,19.168
476.858,18.590
477.121,18.036
477.384,17.506
477.647,17.013
477.910,16.546
478.173,16.100
478.436,15.653
478.699,15.230
478.962,14.833
479.226,14.479
479.489,14.128
479.752,13.790
480.015,13.450
480.279,13.130
480.542,12.807
480.805,12.496
481.069,12.192
481.332,11.918
481.595,11.655
481.859,11.427
482.122,11.190
482.386,10.952
482.649,10.697
482.913,10.454
483.177,10.211
483.440,9.968
483.704,9.724
483.967,9.504
484.231,9.293
484.495,9.094
484.759,8.890
485.022,8.685
485.286,8.478
485.550,8.277
485.814,8.059
486.078,7.841
486.342,7.623
486.606,7.439
486.869,7.259
487.133,7.090
487.397,6.916
487.662,6.745
487.926,6.561
488.190,6.382
488.454,6.195
488.718,6.020
488.982,5.836
489.246,5.671
489.511,5.502
489.775,5.346
490.039,5.190
490.304,5.039
490.568,4.880
490.832,4.731
491.097,4.596
491.361,4.480
491.626,4.359
491.890,4.239
492.155,4.118
492.419,4.019
492.684,3.916
492.949,3.818
493.213,3.719
493.478,3.639
493.743,3.552
494.008,3.457
494.272,3.360
494.537,3.291
494.802,3.233
495.067,3.185
495.332,3.123
495.597,3.066
495.862,2.996
496.127,2.936
496.392,2.873
496.657,2.817
496.922,2.758
497.187,2.709
497.452,2.668
497.718,2.643
497.983,2.616
498.248,2.584
498.513,2.542
498.779,2.511
499.044,2.491
499.310,2.463
499.575,2.420
499.841,2.382
500.106,2.353
500.372,2.325
500.637,2.300
500.903,2.289
501.168,2.281
501.434,2.259
501.700,2.217
501.966,2.182
502.231,2.154
502.497,2.134
502.763,2.109
503.029,2.082
503.295,2.062
503.561,2.049
503.827,2.043
504.093,2.034
504.359,2.015
504.625,1.992
504.891,1.971
505.157,1.958
505.423,1.940
505.690,1.916
505.956,1.893
506.222,1.882
506.489,1.886
506.755,1.894
507.021,1.896
507.288,1.888
507.554,1.871
507.821,1.857
508.087,1.845
508.354,1.848
508.621,1.844
508.887,1.831
509.154,1.814
509.421,1.800
509.687,1.788
509.954,1.771
510.221,1.756
510.488,1.754
510.755,1.758
511.022,1.764
511.289,1.755
511.556,1.742
511.823,1.730
512.090,1.736
512.357,1.733
512.624,1.728
512.891,1.713
513.159,1.702
513.426,1.688
513.693,1.678
513.960,1.676
514.228,1.684
514.495,1.691
514.763,1.693
515.030,1.683
515.298,1.672
515.565,1.666
515.833,1.664
516.100,1.659
516.368,1.654
516.636,1.647
516.904,1.645
517.171,1.636
517.439,1.632
517.707,1.624
517.975,1.623
518.243,1.625
518.511,1.624
518.779,1.611
519.047,1.605
519.315,1.607
519.583,1.609
519.851,1.598
520.119,1.585
520.387,1.579
520.656,1.579
520.924,1.583
521.192,1.588
521.461,1.595
521.729,1.603
521.997,1.605
522.266,1.600
522.534,1.592
522.803,1.589
523.071,1.584
523.340,1.572
523.609,1.552
523.877,1.540
524.146,1.540
524.415,1.551
524.684,1.561
524.952,1.563
525.221,1.561
525.490,1.565
525.759,1.574
526.028,1.578
526.297,1.564
526.566,1.547
526.835,1.535
527.104,1.537
527.373,1.543
527.642,1.545
527.912,1.530
528.181,1.515
528.450,1.508
528.719,1.517
528.989,1.535
529.258,1.552
529.528,1.557
529.797,1.549
530.067,1.544
530.336,1.537
530.606,1.531
530.875,1.518
531.145,1.513
531.414,1.512
531.684,1.521
531.954,1.522
532.224,1.517
532.493,1.498
532.763,1.491
533.033,1.490
533.303,1.498
533.573,1.504
533.843,1.498
534.113,1.493
534.383,1.485
534.653,1.486
534.923,1.491
535.193,1.497
535.463,1.510
535.733,1.523
536.004,1.535
536.274,1.538
536.544,1.526
536.814,1.509
537.085,1.495
537.355,1.499
537.626,1.516
537.896,1.531
538.166,1.538
538.437,1.536
538.707,1.528
538.978,1.525
539.249,1.529
539.519,1.534
539.790,1.523
540.061,1.514
540.331,1.520
540.602,1.541
540.873,1.556
541.144,1.562
541.414,1.556
541.685,1.552
541.956,1.548
542.227,1.544
542.498,1.536
542.769,1.530
543.040,1.535
543.311,1.553
543.582,1.572
543.853,1.583
544.124,1.587
544.396,1.587
544.667,1.586
544.938,1.583
545.209,1.562
545.480,1.542
545.752,1.530
546.023,1.535
546.294,1.527
546.566,1.510
546.837,1.490
547.109,1.485
547.380,1.484
547.652,1.482
547.923,1.481
548.195,1.489
548.466,1.508
548.738,1.523
549.009,1.520
549.281,1.507
549.553,1.488
549.824,1.470
550.096,1.462
550.368,1.462
550.640,1.467
550.911,1.475
551.183,1.491
551.455,1.516
551.727,1.531
551.999,1.523
552.271,1.502
552.543,1.487
552.815,1.483
553.087,1.493
553.359,1.503
553.631,1.505
553.903,1.500
554.175,1.500
554.447,1.508
554.719,1.509
554.991,1.503
555.263,1.496
555.535,1.491
555.808,1.487
556.080,1.480
556.352,1.477
556.624,1.475
556.897,1.470
557.169,1.464
557.441,1.460
557.714,1.459
557.986,1.457
558.258,1.453
558.531,1.460
558.803,1.466
559.076,1.471
559.348,1.465
559.621,1.460
559.893,1.460
560.166,1.462
560.438,1.462
560.711,1.458
560.983,1.453
561.256,1.451
561.528,1.455
561.801,1.467
562.074,1.480
562.346,1.494
562.619,1.500
562.892,1.497
563.164,1.486
563.437,1.481
563.710,1.477
563.983,1.469
564.255,1.457
564.528,1.460
564.801,1.477
565.074,1.490
565.346,1.483
565.619,1.474
565.892,1.478
566.165,1.480
566.438,1.471
566.711,1.453
566.984,1.446
567.257,1.445
567.529,1.451
567.802,1.465
568.075,1.482
568.348,1.484
568.621,1.480
568.894,1.472
569.167,1.470
569.440,1.462
569.713,1.446
569.986,1.438
570.259,1.434
570.532,1.441
570.805,1.443
571.078,1.446
571.351,1.451
571.625,1.461
571.898,1.461
572.171,1.453
572.444,1.445
572.717,1.453
572.990,1.466
573.263,1.467
573.536,1.456
573.809,1.438
574.083,1.428
574.356,1.434
574.629,1.451
574.902,1.464
575.175,1.463
575.448,1.449
575.721,1.440
575.995,1.435
576.268,1.436
576.541,1.444
576.814,1.452
577.087,1.459
577.361,1.457
577.634,1.453
577.907,1.443
578.180,1.432
578.453,1.426
578.727,1.428
579.000,1.435
579.273,1.445
579.546,1.460
579.820,1.477
580.093,1.479
580.366,1.465
580.639,1.446
580.913,1.439
581.186,1.440
581.459,1.440
581.732,1.434
582.005,1.432
582.279,1.431
582.552,1.433
582.825,1.435
583.098,1.438
583.372,1.442
583.645,1.444
583.918,1.448
584.191,1.448
584.464,1.444
584.738,1.440
585.011,1.440
585.284,1.442
585.557,1.442
585.831,1.445
586.104,1.459
586.377,1.479
586.650,1.490
586.923,1.486
587.196,1.477
587.470,1.464
587.743,1.453
588.016,1.445
588.289,1.448
588.562,1.455
588.835,1.455
589.109,1.444
589.382,1.430
589.655,1.422
589.928,1.419
590.201,1.420
590.474,1.431
590.747,1.445
591.020,1.456
591.293,1.458
591.567,1.456
591.840,1.448
592.113,1.438
592.386,1.423
592.659,1.414
592.932,1.417
593.205,1.428
593.478,1.433
593.751,1.431
594.024,1.427
594.297,1.425
594.570,1.427
594.843,1.435
595.116,1.444
595.389,1.446
595.662,1.440
595.934,1.438
596.207,1.441
596.480,1.450
596.753,1.457
597.026,1.456
597.299,1.453
597.572,1.451
597.844,1.449
598.117,1.442
598.390,1.433
598.663,1.425
598.936,1.425
599.208,1.427
599.481,1.433
599.754,1.435
600.026,1.427
600.299,1.417
600.572,1.410
600.844,1.406
601.117,1.400
601.390,1.396
601.662,1.398
601.935,1.403
602.207,1.408
602.480,1.414
602.752,1.417
603.025,1.412
603.297,1.405
603.570,1.412
603.842,1.430
604.115,1.445
604.387,1.450
604.660,1.444
604.932,1.441
605.204,1.443
605.477,1.456
605.749,1.472
606.021,1.481
606.294,1.481
606.566,1.466
606.838,1.457
607.110,1.456
607.383,1.464
607.655,1.467
607.927,1.474
608.199,1.482
608.471,1.490
608.743,1.484
609.015,1.476
609.287,1.467
609.559,1.467
609.831,1.470
610.103,1.472
610.375,1.471
610.647,1.463
610.919,1.453
611.191,1.451
611.463,1.452
611.735,1.451
612.007,1.441
612.278,1.432
612.550,1.430
612.822,1.437
613.094,1.442
613.365,1.441
613.637,1.441
613.909,1.442
614.180,1.446
614.452,1.444
614.723,1.436
614.995,1.425
615.266,1.420
615.538,1.427
615.809,1.438
616.081,1.439
616.352,1.434
616.623,1.429
616.895,1.427
617.166,1.420
617.437,1.415
617.709,1.417
617.980,1.428
618.251,1.440
618.522,1.451
618.793,1.462
619.065,1.475
619.336,1.467
619.607,1.452
619.878,1.441
620.149,1.451
620.420,1.459
620.691,1.457
620.962,1.455
621.232,1.459
621.503,1.458
621.774,1.450
622.045,1.441
622.316,1.444
622.586,1.456
622.857,1.473
623.128,1.479
623.398,1.474
623.669,1.460
623.940,1.447
624.210,1.439
624.481,1.441
624.751,1.445
625.021,1.443
625.292,1.433
625.562,1.430
625.833,1.429
626.103,1.425
626.373,1.418
626.643,1.418
626.914,1.424
627.184,1.430
627.454,1.432
627.724,1.430
627.994,1.427
628.264,1.428
628.534,1.426
628.804,1.426
629.074,1.428
629.344,1.433
629.614,1.432
629.884,1.425
630.154,1.415
630.424,1.403
630.693,1.392
630.963,1.378
631.233,1.369
631.502,1.369
631.772,1.382
632.041,1.398
632.311,1.409
632.581,1.412
632.850,1.409
633.119,1.396
633.389,1.385
633.658,1.381
633.928,1.391
634.197,1.404
634.466,1.420
634.735,1.429
635.004,1.426
635.274,1.417
635.543,1.410
635.812,1.412
636.081,1.415
636.350,1.415
636.619,1.413
636.888,1.412
637.157,1.414
637.426,1.418
637.694,1.422
637.963,1.420
638.232,1.415
638.501,1.411
638.769,1.413
639.038,1.416
639.307,1.423
639.575,1.429
639.844,1.428
640.112,1.421
640.381,1.407
640.649,1.403
640.917,1.407
641.186,1.413
641.454,1.420
641.722,1.419
641.991,1.418
642.259,1.412
642.527,1.410
642.795,1.408
643.063,1.398
643.331,1.389
643.599,1.385
643.867,1.392
644.135,1.398
644.403,1.407
644.671,1.411
644.939,1.419
645.206,1.424
645.474,1.427
645.742,1.421
646.009,1.408
646.277,1.400
646.545,1.402
646.812,1.418
647.080,1.435
647.347,1.442
647.615,1.436
647.882,1.420
648.149,1.406
648.417,1.397
648.684,1.399
648.951,1.411
649.219,1.421
649.486,1.425
649.753,1.419
650.020,1.408
650.287,1.397
650.554,1.392
650.821,1.390
651.088,1.391
651.355,1.399
651.622,1.405
651.889,1.411
652.155,1.407
652.422,1.407
652.689,1.410
652.956,1.415
653.222,1.424
653.489,1.442
653.755,1.454
654.022,1.448
654.288,1.429
654.555,1.418
654.821,1.419
655.088,1.424
655.354,1.429
655.620,1.437
655.887,1.441
656.153,1.444
656.419,1.441
656.685,1.435
656.951,1.429
657.217,1.425
657.483,1.416
657.749,1.408
658.015,1.404
658.281,1.405
658.547,1.404
658.813,1.399
659.079,1.395
659.345,1.392
659.610,1.392
659.876,1.391
660.142,1.393
660.407,1.395
660.673,1.404
660.939,1.412
661.204,1.415
661.470,1.413
661.735,1.411
662.000,1.412
662.266,1.410
662.531,1.407
662.796,1.402
663.062,1.395
663.327,1.385
663.592,1.383
663.857,1.385
664.122,1.390
664.388,1.393
664.653,1.397
664.918,1.404
665.183,1.406
665.448,1.408
665.712,1.410
665.977,1.415
666.242,1.413
666.507,1.397
666.772,1.379
667.037,1.369
667.301,1.376
667.566,1.387
667.831,1.398
668.095,1.405
668.360,1.409
668.624,1.407
668.889,1.408
669.153,1.405
669.418,1.402
669.682,1.399
669.946,1.401
670.211,1.412
670.475,1.423
670.739,1.439
671.004,1.456
671.268,1.489
671.532,1.522
671.796,1.509
672.060,1.477
672.324,1.444
672.588,1.447
672.852,1.459
673.116,1.498
673.380,1.536
673.644,1.516
673.908,1.461
674.172,1.409
674.436,1.407
674.700,1.409
674.963,1.414
675.227,1.419
675.491,1.417
675.754,1.410
676.018,1.407
676.282,1.413
676.545,1.416
676.809,1.410
677.072,1.399
677.336,1.393
677.599,1.397
677.863,1.397
678.126,1.399
678.389,1.404
678.653,1.413
678.916,1.413
679.179,1.402
679.442,1.395
679.706,1.397
679.969,1.402
680.232,1.409
680.495,1.423
680.758,1.434
681.021,1.432
681.284,1.415
681.547,1.402
681.810,1.403
682.073,1.418
682.336,1.428
682.599,1.427
682.862,1.420
683.125,1.418
683.388,1.421
683.651,1.421
683.913,1.415
684.176,1.404
684.439,1.395
684.702,1.386
684.964,1.384
685.227,1.386
685.490,1.399
685.752,1.416
686.015,1.424
686.277,1.420
686.540,1.407
686.802,1.398
687.065,1.396
687.327,1.402
687.590,1.406
687.852,1.400
688.115,1.385
688.377,1.380
688.639,1.382
688.902,1.391
689.164,1.400
689.426,1.411
689.689,1.417
689.951,1.414
690.213,1.408
690.475,1.404
690.737,1.400
691.000,1.395
691.262,1.392
691.524,1.402
691.786,1.416
692.048,1.427
692.310,1.423
692.572,1.406
692.834,1.388
693.096,1.386
693.358,1.397
693.620,1.414
693.882,1.430
694.144,1.434
694.406,1.427
694.668,1.417
694.930,1.410
695.192,1.405
695.453,1.407
695.715,1.408
695.977,1.406
696.239,1.398
696.501,1.395
696.762,1.402
697.024,1.407
697.286,1.402
697.548,1.397
697.809,1.396
698.071,1.395
698.333,1.390
698.594,1.387
698.856,1.391
699.118,1.396
699.379,1.401
699.641,1.407
699.902,1.412
700.164,1.413
700.426,1.411
700.687,1.406
700.949,1.408
701.210,1.406
701.472,1.399
701.733,1.388
701.995,1.387
702.256,1.392
702.518,1.396
702.779,1.397
703.041,1.411
703.302,1.425
703.563,1.426
703.825,1.413
704.086,1.396
704.348,1.387
704.609,1.389
704.871,1.403
705.132,1.418
705.393,1.416
705.655,1.409
705.916,1.404
706.177,1.405
706.439,1.407
706.700,1.402
706.961,1.400
707.223,1.396
707.484,1.382
707.745,1.372
708.007,1.360
708.268,1.352
708.529,1.337
708.790,1.318
709.052,1.307
709.313,1.308
709.574,1.316
709.835,1.323
710.097,1.318
710.358,1.304
710.619,1.289
710.881,1.281
711.142,1.275
711.403,1.271
711.664,1.271
711.926,1.268
712.187,1.271
712.448,1.276
712.709,1.286
712.970,1.293
713.232,1.296
713.493,1.299
713.754,1.301
714.015,1.307
714.277,1.313
714.538,1.320
714.799,1.328
715.060,1.331
715.322,1.328
715.583,1.319
715.844,1.309
716.105,1.299
716.367,1.291
716.628,1.290
716.889,1.292
717.150,1.289
717.411,1.284
717.673,1.284
717.934,1.292
718.195,1.299
718.457,1.298
718.718,1.287
718.979,1.279
719.240,1.281
719.502,1.293
719.763,1.304
720.024,1.310
720.286,1.308
720.547,1.299
720.808,1.288
721.069,1.283
721.331,1.291
721.592,1.306
721.853,1.316
722.115,1.318
722.376,1.314
722.638,1.306
722.899,1.299
723.160,1.291
723.422,1.287
723.683,1.289
723.944,1.296
724.206,1.298
724.467,1.294
724.729,1.288
724.990,1.295
725.252,1.302
725.513,1.298
725.775,1.283
726.036,1.271
726.298,1.270
726.559,1.278
726.821,1.285
727.082,1.289
727.344,1.289
727.605,1.285
727.867,1.277
728.128,1.274
728.390,1.273
728.652,1.285
728.913,1.301
729.175,1.313
729.436,1.316
729.698,1.313
729.960,1.306
730.221,1.297
730.483,1.282
730.745,1.277
731.007,1.276
731.268,1.281
731.530,1.281
731.792,1.282
732.054,1.286
732.315,1.294
732.577,1.300
732.839,1.295
733.101,1.285
733.363,1.279
733.625,1.278
733.887,1.279
734.149,1.280
734.411,1.288
734.673,1.295
734.935,1.298
735.197,1.293
735.459,1.293
735.721,1.293
735.983,1.289
736.245,1.279
736.507,1.279
736.769,1.289
737.031,1.300
737.293,1.297
737.555,1.284
737.818,1.273
738.080,1.265
738.342,1.264
738.604,1.266
738.867,1.270
739.129,1.269
739.391,1.268
739.654,1.266
739.916,1.266
740.178,1.270
740.441,1.279
740.703,1.285
740.966,1.285
741.228,1.281
741.491,1.277
741.753,1.275
742.016,1.275
742.278,1.280
742.541,1.286
742.804,1.293
743.066,1.297
743.329,1.297
743.592,1.293
743.854,1.292
744.117,1.294
744.380,1.297
744.643,1.296
744.905,1.292
745.168,1.292
745.431,1.290
745.694,1.286
745.957,1.281
746.220,1.275
746.483,1.270
746.746,1.269
747.009,1.278
