Wavelength (nm),Intensity Source #113,,C:\Users\Brend\Desktop\LED Spectras v2\Spectrometer Data.sp,,,Source #113,
379.792,1.842,,2018-06-14 12:20:39,,Integration Time,128 ms,
380.000,1.838,,Analyze Light,,Number of Scans to Average,25,
380.209,1.834,,,,Smoothing,1,
380.418,1.841
380.627,1.860
380.837,1.879
381.048,1.893
381.259,1.893
381.471,1.888
381.683,1.887
381.896,1.895
382.110,1.901
382.324,1.907
382.538,1.916
382.753,1.928
382.969,1.930
383.185,1.927
383.402,1.921
383.619,1.929
383.837,1.943
384.055,1.966
384.274,1.984
384.493,1.990
384.712,1.987
384.932,1.984
385.153,1.993
385.374,2.009
385.596,2.024
385.818,2.044
386.040,2.064
386.263,2.082
386.487,2.088
386.710,2.091
386.935,2.082
387.159,2.076
387.385,2.066
387.610,2.066
387.836,2.069
388.063,2.079
388.289,2.090
388.517,2.096
388.744,2.097
388.972,2.107
389.201,2.117
389.430,2.128
389.659,2.129
389.889,2.132
390.119,2.136
390.349,2.147
390.580,2.166
390.811,2.180
391.042,2.182
391.274,2.183
391.507,2.188
391.739,2.192
391.972,2.191
392.205,2.195
392.439,2.204
392.673,2.213
392.907,2.217
393.142,2.230
393.377,2.245
393.612,2.263
393.848,2.270
394.084,2.277
394.320,2.283
394.557,2.292
394.794,2.294
395.031,2.302
395.269,2.315
395.507,2.337
395.745,2.349
395.983,2.355
396.222,2.357
396.461,2.366
396.700,2.383
396.940,2.397
397.180,2.402
397.420,2.398
397.660,2.391
397.901,2.391
398.142,2.397
398.383,2.400
398.625,2.398
398.866,2.406
399.108,2.425
399.351,2.457
399.593,2.463
399.836,2.462
400.079,2.451
400.322,2.455
400.566,2.454
400.809,2.458
401.053,2.465
401.298,2.480
401.542,2.487
401.787,2.492
402.031,2.498
402.277,2.511
402.522,2.518
402.767,2.526
403.013,2.528
403.259,2.535
403.505,2.537
403.752,2.545
403.998,2.549
404.245,2.561
404.492,2.572
404.739,2.584
404.986,2.590
405.234,2.594
405.482,2.591
405.730,2.587
405.978,2.589
406.226,2.596
406.475,2.597
406.723,2.602
406.972,2.616
407.221,2.640
407.470,2.651
407.720,2.660
407.969,2.661
408.219,2.677
408.469,2.693
408.719,2.712
408.969,2.722
409.219,2.728
409.470,2.731
409.720,2.735
409.971,2.739
410.222,2.748
410.473,2.748
410.724,2.749
410.976,2.752
411.227,2.771
411.479,2.786
411.731,2.801
411.983,2.802
412.235,2.805
412.487,2.797
412.740,2.798
412.992,2.801
413.245,2.809
413.497,2.808
413.750,2.805
414.003,2.804
414.257,2.809
414.510,2.814
414.763,2.827
415.017,2.841
415.270,2.853
415.524,2.854
415.778,2.855
416.032,2.859
416.286,2.870
416.540,2.877
416.794,2.887
417.049,2.887
417.303,2.889
417.558,2.889
417.812,2.891
418.067,2.890
418.322,2.895
418.577,2.897
418.832,2.895
419.088,2.883
419.343,2.879
419.598,2.874
419.854,2.879
420.109,2.885
420.365,2.897
420.621,2.898
420.876,2.908
421.132,2.917
421.388,2.929
421.645,2.926
421.901,2.930
422.157,2.933
422.413,2.943
422.670,2.941
422.926,2.944
423.183,2.947
423.439,2.966
423.696,2.983
423.953,3.011
424.210,3.033
424.467,3.046
424.724,3.043
424.981,3.033
425.238,3.041
425.495,3.076
425.753,3.113
426.010,3.143
426.267,3.161
426.525,3.200
426.782,3.241
427.040,3.287
427.298,3.323
427.555,3.372
427.813,3.416
428.071,3.461
428.329,3.502
428.587,3.554
428.845,3.612
429.103,3.681
429.361,3.746
429.619,3.819
429.878,3.891
430.136,3.980
430.394,4.065
430.653,4.171
430.911,4.283
431.170,4.404
431.428,4.511
431.687,4.626
431.946,4.742
432.204,4.872
432.463,5.004
432.722,5.144
432.981,5.286
433.240,5.443
433.499,5.611
433.758,5.795
434.017,5.975
434.276,6.172
434.535,6.370
434.794,6.582
435.053,6.787
435.312,7.008
435.572,7.232
435.831,7.485
436.090,7.756
436.350,8.044
436.609,8.330
436.869,8.623
437.128,8.930
437.388,9.258
437.647,9.591
437.907,9.935
438.166,10.276
438.426,10.642
438.686,11.024
438.946,11.426
439.205,11.834
439.465,12.273
439.725,12.739
439.985,13.228
440.245,13.718
440.505,14.228
440.765,14.743
441.025,15.279
441.285,15.826
441.545,16.405
441.805,17.003
442.065,17.620
442.325,18.270
442.585,18.962
442.846,19.693
443.106,20.448
443.366,21.240
443.626,22.062
443.887,22.930
444.147,23.828
444.407,24.769
444.668,25.753
444.928,26.775
445.189,27.857
445.449,28.982
445.710,30.162
445.970,31.386
446.231,32.679
446.491,34.049
446.752,35.486
447.012,36.974
447.273,38.520
447.534,40.104
447.794,41.726
448.055,43.394
448.316,45.168
448.577,47.056
448.837,49.018
449.098,51.030
449.359,53.063
449.620,55.115
449.881,57.188
450.142,59.291
450.403,61.475
450.664,63.706
450.924,65.975
451.185,68.246
451.446,70.515
451.707,72.768
451.969,74.994
452.230,77.182
452.491,79.317
452.752,81.330
453.013,83.156
453.274,84.715
453.535,86.018
453.796,87.089
454.058,87.997
454.319,88.785
454.580,89.473
454.841,90.076
455.103,90.584
455.364,91.013
455.625,91.363
455.887,91.640
456.148,91.852
456.409,92.008
456.671,92.103
456.932,92.138
457.194,92.118
457.455,92.047
457.716,91.931
457.978,91.769
458.239,91.563
458.501,91.308
458.763,90.994
459.024,90.611
459.286,90.145
459.547,89.603
459.809,88.965
460.071,88.242
460.332,87.402
460.594,86.439
460.856,85.325
461.117,83.996
461.379,82.470
461.641,80.775
461.903,79.028
462.164,77.262
462.426,75.495
462.688,73.721
462.950,71.959
463.212,70.238
463.474,68.545
463.736,66.883
463.998,65.254
464.260,63.688
464.522,62.203
464.784,60.786
465.046,59.458
465.308,58.200
465.570,57.011
465.832,55.872
466.094,54.783
466.356,53.751
466.618,52.756
466.880,51.770
467.142,50.806
467.405,49.873
467.667,48.999
467.929,48.168
468.191,47.370
468.454,46.596
468.716,45.837
468.978,45.068
469.241,44.290
469.503,43.510
469.765,42.742
470.028,41.994
470.290,41.264
470.552,40.553
470.815,39.844
471.077,39.116
471.340,38.385
471.602,37.649
471.865,36.920
472.128,36.181
472.390,35.457
472.653,34.740
472.915,34.035
473.178,33.307
473.441,32.572
473.703,31.807
473.966,31.043
474.229,30.273
474.492,29.517
474.755,28.760
475.017,28.017
475.280,27.298
475.543,26.602
475.806,25.902
476.069,25.183
476.332,24.480
476.595,23.798
476.858,23.146
477.121,22.498
477.384,21.866
477.647,21.268
477.910,20.689
478.173,20.128
478.436,19.564
478.699,19.027
478.962,18.510
479.226,18.024
479.489,17.540
479.752,17.073
480.015,16.614
480.279,16.171
480.542,15.726
480.805,15.306
481.069,14.899
481.332,14.527
481.595,14.164
481.859,13.846
482.122,13.533
482.386,13.223
482.649,12.891
482.913,12.567
483.177,12.257
483.440,11.962
483.704,11.678
483.967,11.416
484.231,11.161
484.495,10.920
484.759,10.675
485.022,10.435
485.286,10.192
485.550,9.955
485.814,9.709
486.078,9.471
486.342,9.242
486.606,9.035
486.869,8.832
487.133,8.642
487.397,8.450
487.662,8.264
487.926,8.065
488.190,7.866
488.454,7.653
488.718,7.452
488.982,7.250
489.246,7.075
489.511,6.888
489.775,6.711
490.039,6.530
490.304,6.359
490.568,6.177
490.832,6.009
491.097,5.852
491.361,5.710
491.626,5.557
491.890,5.414
492.155,5.271
492.419,5.140
492.684,4.996
492.949,4.853
493.213,4.710
493.478,4.590
493.743,4.466
494.008,4.338
494.272,4.203
494.537,4.096
494.802,4.001
495.067,3.924
495.332,3.838
495.597,3.754
495.862,3.651
496.127,3.553
496.392,3.457
496.657,3.375
496.922,3.294
497.187,3.221
497.452,3.150
497.718,3.096
497.983,3.032
498.248,2.975
498.513,2.906
498.779,2.862
499.044,2.826
499.310,2.783
499.575,2.725
499.841,2.669
500.106,2.623
500.372,2.580
500.637,2.534
500.903,2.500
501.168,2.465
501.434,2.425
501.700,2.376
501.966,2.339
502.231,2.308
502.497,2.281
502.763,2.243
503.029,2.207
503.295,2.179
503.561,2.157
503.827,2.137
504.093,2.119
504.359,2.100
504.625,2.083
504.891,2.059
505.157,2.043
505.423,2.018
505.690,1.993
505.956,1.967
506.222,1.953
506.489,1.953
506.755,1.955
507.021,1.948
507.288,1.933
507.554,1.913
507.821,1.898
508.087,1.884
508.354,1.879
508.621,1.869
508.887,1.854
509.154,1.836
509.421,1.821
509.687,1.802
509.954,1.783
510.221,1.766
510.488,1.764
510.755,1.765
511.022,1.765
511.289,1.756
511.556,1.747
511.823,1.735
512.090,1.733
512.357,1.723
512.624,1.716
512.891,1.700
513.159,1.683
513.426,1.666
513.693,1.654
513.960,1.650
514.228,1.650
514.495,1.652
514.763,1.650
515.030,1.644
515.298,1.636
515.565,1.637
515.833,1.635
516.100,1.630
516.368,1.622
516.636,1.612
516.904,1.606
517.171,1.596
517.439,1.586
517.707,1.576
517.975,1.572
518.243,1.573
518.511,1.571
518.779,1.558
519.047,1.550
519.315,1.547
519.583,1.541
519.851,1.526
520.119,1.511
520.387,1.506
520.656,1.510
520.924,1.516
521.192,1.526
521.461,1.533
521.729,1.537
521.997,1.537
522.266,1.533
522.534,1.530
522.803,1.531
523.071,1.532
523.340,1.524
523.609,1.510
523.877,1.498
524.146,1.492
524.415,1.491
524.684,1.491
524.952,1.485
525.221,1.480
525.490,1.485
525.759,1.497
526.028,1.502
526.297,1.491
526.566,1.477
526.835,1.464
527.104,1.462
527.373,1.463
527.642,1.466
527.912,1.459
528.181,1.452
528.450,1.448
528.719,1.451
528.989,1.461
529.258,1.472
529.528,1.475
529.797,1.467
530.067,1.462
530.336,1.457
530.606,1.454
530.875,1.447
531.145,1.447
531.414,1.448
531.684,1.452
531.954,1.452
532.224,1.445
532.493,1.430
532.763,1.422
533.033,1.424
533.303,1.433
533.573,1.444
533.843,1.443
534.113,1.440
534.383,1.428
534.653,1.425
534.923,1.429
535.193,1.437
535.463,1.443
535.733,1.446
536.004,1.447
536.274,1.446
536.544,1.442
536.814,1.434
537.085,1.424
537.355,1.422
537.626,1.434
537.896,1.448
538.166,1.455
538.437,1.451
538.707,1.445
538.978,1.444
539.249,1.451
539.519,1.454
539.790,1.450
540.061,1.447
540.331,1.453
540.602,1.463
540.873,1.465
541.144,1.465
541.414,1.463
541.685,1.461
541.956,1.458
542.227,1.454
542.498,1.449
542.769,1.445
543.040,1.448
543.311,1.458
543.582,1.465
543.853,1.469
544.124,1.466
544.396,1.470
544.667,1.474
544.938,1.475
545.209,1.458
545.480,1.440
545.752,1.431
546.023,1.436
546.294,1.432
546.566,1.423
546.837,1.410
547.109,1.409
547.380,1.409
547.652,1.409
547.923,1.406
548.195,1.410
548.466,1.420
548.738,1.431
549.009,1.431
549.281,1.427
549.553,1.415
549.824,1.400
550.096,1.386
550.368,1.381
550.640,1.387
550.911,1.395
551.183,1.408
551.455,1.422
551.727,1.433
551.999,1.430
552.271,1.420
552.543,1.412
552.815,1.408
553.087,1.413
553.359,1.420
553.631,1.423
553.903,1.419
554.175,1.413
554.447,1.412
554.719,1.415
554.991,1.419
555.263,1.420
555.535,1.416
555.808,1.411
556.080,1.406
556.352,1.401
556.624,1.395
556.897,1.389
557.169,1.388
557.441,1.390
557.714,1.393
557.986,1.393
558.258,1.387
558.531,1.388
558.803,1.390
559.076,1.396
559.348,1.394
559.621,1.392
559.893,1.391
560.166,1.391
560.438,1.388
560.711,1.381
560.983,1.376
561.256,1.374
561.528,1.378
561.801,1.387
562.074,1.397
562.346,1.408
562.619,1.418
562.892,1.416
563.164,1.408
563.437,1.403
563.710,1.403
563.983,1.399
564.255,1.390
564.528,1.388
564.801,1.395
565.074,1.402
565.346,1.398
565.619,1.391
565.892,1.388
566.165,1.384
566.438,1.374
566.711,1.368
566.984,1.372
567.257,1.379
567.529,1.382
567.802,1.390
568.075,1.397
568.348,1.400
568.621,1.397
568.894,1.396
569.167,1.395
569.440,1.393
569.713,1.384
569.986,1.381
570.259,1.379
570.532,1.380
570.805,1.377
571.078,1.377
571.351,1.380
571.625,1.385
571.898,1.381
572.171,1.371
572.444,1.362
572.717,1.366
572.990,1.378
573.263,1.381
573.536,1.372
573.809,1.361
574.083,1.354
574.356,1.361
574.629,1.376
574.902,1.387
575.175,1.386
575.448,1.373
575.721,1.365
575.995,1.364
576.268,1.366
576.541,1.373
576.814,1.383
577.087,1.391
577.361,1.392
577.634,1.388
577.907,1.377
578.180,1.367
578.453,1.359
578.727,1.358
579.000,1.360
579.273,1.366
579.546,1.380
579.820,1.395
580.093,1.398
580.366,1.390
580.639,1.372
580.913,1.362
581.186,1.361
581.459,1.366
581.732,1.362
582.005,1.359
582.279,1.356
582.552,1.359
582.825,1.360
583.098,1.366
583.372,1.373
583.645,1.380
583.918,1.382
584.191,1.379
584.464,1.376
584.738,1.373
585.011,1.370
585.284,1.367
585.557,1.366
585.831,1.373
586.104,1.387
586.377,1.401
586.650,1.407
586.923,1.401
587.196,1.389
587.470,1.377
587.743,1.370
588.016,1.366
588.289,1.368
588.562,1.375
588.835,1.379
589.109,1.372
589.382,1.362
589.655,1.352
589.928,1.349
590.201,1.348
590.474,1.358
590.747,1.370
591.020,1.382
591.293,1.388
591.567,1.390
591.840,1.382
592.113,1.370
592.386,1.356
592.659,1.349
592.932,1.350
593.205,1.356
593.478,1.359
593.751,1.355
594.024,1.355
594.297,1.352
594.570,1.354
594.843,1.361
595.116,1.369
595.389,1.371
595.662,1.365
595.934,1.364
596.207,1.370
596.480,1.376
596.753,1.380
597.026,1.381
597.299,1.381
597.572,1.378
597.844,1.371
598.117,1.362
598.390,1.354
598.663,1.348
598.936,1.350
599.208,1.355
599.481,1.363
599.754,1.366
600.026,1.354
600.299,1.338
600.572,1.328
600.844,1.329
601.117,1.329
601.390,1.327
601.662,1.331
601.935,1.339
602.207,1.346
602.480,1.352
602.752,1.352
603.025,1.344
603.297,1.336
603.570,1.339
603.842,1.355
604.115,1.369
604.387,1.374
604.660,1.366
604.932,1.362
605.204,1.366
605.477,1.375
605.749,1.383
606.021,1.388
606.294,1.390
606.566,1.381
606.838,1.376
607.110,1.380
607.383,1.391
607.655,1.399
607.927,1.406
608.199,1.412
608.471,1.413
608.743,1.405
609.015,1.392
609.287,1.382
609.559,1.383
609.831,1.393
610.103,1.401
610.375,1.395
610.647,1.383
610.919,1.370
611.191,1.369
611.463,1.372
611.735,1.376
612.007,1.372
612.278,1.366
612.550,1.365
612.822,1.368
613.094,1.376
613.365,1.377
613.637,1.381
613.909,1.383
614.180,1.384
614.452,1.380
614.723,1.369
614.995,1.358
615.266,1.352
615.538,1.361
615.809,1.372
616.081,1.371
616.352,1.358
616.623,1.345
616.895,1.337
617.166,1.334
617.437,1.334
617.709,1.338
617.980,1.345
618.251,1.352
618.522,1.355
618.793,1.366
619.065,1.380
619.336,1.381
619.607,1.372
619.878,1.366
620.149,1.374
620.420,1.379
620.691,1.374
620.962,1.371
621.232,1.370
621.503,1.365
621.774,1.356
622.045,1.355
622.316,1.367
622.586,1.381
622.857,1.390
623.128,1.388
623.398,1.383
623.669,1.370
623.940,1.358
624.210,1.347
624.481,1.346
624.751,1.347
625.021,1.345
625.292,1.338
625.562,1.338
625.833,1.338
626.103,1.336
626.373,1.332
626.643,1.338
626.914,1.349
627.184,1.358
627.454,1.357
627.724,1.354
627.994,1.352
628.264,1.351
628.534,1.344
628.804,1.338
629.074,1.343
629.344,1.356
629.614,1.365
629.884,1.368
630.154,1.362
630.424,1.353
630.693,1.338
630.963,1.323
631.233,1.312
631.502,1.312
631.772,1.320
632.041,1.330
632.311,1.340
632.581,1.348
632.850,1.351
633.119,1.344
633.389,1.331
633.658,1.324
633.928,1.326
634.197,1.334
634.466,1.345
634.735,1.350
635.004,1.346
635.274,1.341
635.543,1.338
635.812,1.341
636.081,1.342
636.350,1.344
636.619,1.347
636.888,1.349
637.157,1.349
637.426,1.352
637.694,1.352
637.963,1.347
638.232,1.340
638.501,1.337
638.769,1.345
639.038,1.356
639.307,1.366
639.575,1.368
639.844,1.359
640.112,1.345
640.381,1.332
640.649,1.327
640.917,1.331
641.186,1.335
641.454,1.340
641.722,1.339
641.991,1.340
642.259,1.334
642.527,1.333
642.795,1.333
643.063,1.330
643.331,1.329
643.599,1.331
643.867,1.342
644.135,1.345
644.403,1.345
644.671,1.341
644.939,1.341
645.206,1.340
645.474,1.343
645.742,1.338
646.009,1.328
646.277,1.320
646.545,1.323
646.812,1.337
647.080,1.351
647.347,1.358
647.615,1.355
647.882,1.343
648.149,1.331
648.417,1.324
648.684,1.330
648.951,1.343
649.219,1.356
649.486,1.360
649.753,1.354
650.020,1.338
650.287,1.324
650.554,1.316
650.821,1.316
651.088,1.318
651.355,1.327
651.622,1.332
651.889,1.334
652.155,1.327
652.422,1.324
652.689,1.330
652.956,1.335
653.222,1.345
653.489,1.359
653.755,1.368
654.022,1.359
654.288,1.338
654.555,1.324
654.821,1.326
655.088,1.333
655.354,1.340
655.620,1.353
655.887,1.363
656.153,1.368
656.419,1.363
656.685,1.359
656.951,1.356
657.217,1.351
657.483,1.342
657.749,1.337
658.015,1.337
658.281,1.341
658.547,1.339
658.813,1.334
659.079,1.330
659.345,1.327
659.610,1.324
659.876,1.320
660.142,1.318
660.407,1.316
660.673,1.319
660.939,1.323
661.204,1.324
661.470,1.320
661.735,1.317
662.000,1.319
662.266,1.325
662.531,1.328
662.796,1.326
663.062,1.320
663.327,1.315
663.592,1.316
663.857,1.322
664.122,1.323
664.388,1.320
664.653,1.318
664.918,1.323
665.183,1.326
665.448,1.334
665.712,1.340
665.977,1.351
666.242,1.355
666.507,1.345
666.772,1.329
667.037,1.315
667.301,1.313
667.566,1.316
667.831,1.318
668.095,1.318
668.360,1.317
668.624,1.315
668.889,1.319
669.153,1.319
669.418,1.320
669.682,1.319
669.946,1.323
670.211,1.332
670.475,1.340
670.739,1.348
671.004,1.355
671.268,1.376
671.532,1.394
671.796,1.391
672.060,1.375
672.324,1.357
672.588,1.359
672.852,1.370
673.116,1.405
673.380,1.434
673.644,1.419
673.908,1.377
674.172,1.336
674.436,1.331
674.700,1.331
674.963,1.336
675.227,1.340
675.491,1.337
675.754,1.332
676.018,1.333
676.282,1.343
676.545,1.349
676.809,1.347
677.072,1.338
677.336,1.331
677.599,1.328
677.863,1.323
678.126,1.322
678.389,1.326
678.653,1.338
678.916,1.347
679.179,1.342
679.442,1.338
679.706,1.339
679.969,1.341
680.232,1.340
680.495,1.345
680.758,1.353
681.021,1.351
681.284,1.336
681.547,1.323
681.810,1.323
682.073,1.334
682.336,1.344
682.599,1.344
682.862,1.343
683.125,1.343
683.388,1.346
683.651,1.343
683.913,1.337
684.176,1.327
684.439,1.316
684.702,1.305
684.964,1.299
685.227,1.302
685.490,1.314
685.752,1.329
686.015,1.334
686.277,1.330
686.540,1.323
686.802,1.320
687.065,1.323
687.327,1.328
687.590,1.333
687.852,1.329
688.115,1.318
688.377,1.309
688.639,1.305
688.902,1.304
689.164,1.307
689.426,1.319
689.689,1.331
689.951,1.335
690.213,1.334
690.475,1.332
690.737,1.328
691.000,1.320
691.262,1.319
691.524,1.327
691.786,1.340
692.048,1.350
692.310,1.349
692.572,1.337
692.834,1.324
693.096,1.321
693.358,1.326
693.620,1.336
693.882,1.347
694.144,1.353
694.406,1.348
694.668,1.339
694.930,1.329
695.192,1.326
695.453,1.324
695.715,1.328
695.977,1.326
696.239,1.323
696.501,1.322
696.762,1.328
697.024,1.332
697.286,1.326
697.548,1.321
697.809,1.317
698.071,1.313
698.333,1.306
698.594,1.304
698.856,1.314
699.118,1.327
699.379,1.332
699.641,1.334
699.902,1.335
700.164,1.336
700.426,1.330
700.687,1.324
700.949,1.324
701.210,1.326
701.472,1.327
701.733,1.327
701.995,1.329
702.256,1.329
702.518,1.326
702.779,1.324
703.041,1.335
703.302,1.345
703.563,1.345
703.825,1.332
704.086,1.323
704.348,1.321
704.609,1.326
704.871,1.336
705.132,1.347
705.393,1.345
705.655,1.338
705.916,1.329
706.177,1.325
706.439,1.326
706.700,1.329
706.961,1.334
707.223,1.331
707.484,1.313
707.745,1.295
708.007,1.282
708.268,1.276
708.529,1.268
708.790,1.259
709.052,1.256
709.313,1.262
709.574,1.266
709.835,1.270
710.097,1.262
710.358,1.247
710.619,1.226
710.881,1.211
711.142,1.206
711.403,1.205
711.664,1.204
711.926,1.197
712.187,1.196
712.448,1.199
712.709,1.207
712.970,1.216
713.232,1.225
713.493,1.234
713.754,1.239
714.015,1.242
714.277,1.245
714.538,1.254
714.799,1.263
715.060,1.269
715.322,1.266
715.583,1.257
715.844,1.246
716.105,1.236
716.367,1.231
716.628,1.233
716.889,1.230
717.150,1.222
717.411,1.210
717.673,1.206
717.934,1.210
718.195,1.215
718.457,1.213
718.718,1.206
718.979,1.201
719.240,1.203
719.502,1.215
719.763,1.227
720.024,1.235
720.286,1.234
720.547,1.225
720.808,1.217
721.069,1.214
721.331,1.222
721.592,1.230
721.853,1.234
722.115,1.234
722.376,1.234
722.638,1.232
722.899,1.231
723.160,1.224
723.422,1.219
723.683,1.213
723.944,1.216
724.206,1.218
724.467,1.219
724.729,1.217
724.990,1.220
725.252,1.224
725.513,1.221
725.775,1.211
726.036,1.197
726.298,1.193
726.559,1.193
726.821,1.196
727.082,1.195
727.344,1.192
727.605,1.191
727.867,1.193
728.128,1.198
728.390,1.202
728.652,1.213
728.913,1.229
729.175,1.240
729.436,1.240
729.698,1.237
729.960,1.232
730.221,1.226
730.483,1.215
730.745,1.214
731.007,1.215
731.268,1.215
731.530,1.212
731.792,1.209
732.054,1.213
732.315,1.218
732.577,1.220
732.839,1.216
733.101,1.211
733.363,1.209
733.625,1.213
733.887,1.216
734.149,1.219
734.411,1.220
734.673,1.220
734.935,1.221
735.197,1.222
735.459,1.227
735.721,1.233
735.983,1.231
736.245,1.221
736.507,1.215
736.769,1.216
737.031,1.222
737.293,1.215
737.555,1.205
737.818,1.195
738.080,1.190
738.342,1.190
738.604,1.195
738.867,1.201
739.129,1.204
739.391,1.197
739.654,1.190
739.916,1.187
740.178,1.197
740.441,1.212
740.703,1.220
740.966,1.218
741.228,1.208
741.491,1.204
741.753,1.204
742.016,1.205
742.278,1.202
742.541,1.199
742.804,1.200
743.066,1.208
743.329,1.213
743.592,1.215
743.854,1.216
744.117,1.220
744.380,1.222
744.643,1.215
744.905,1.204
745.168,1.198
745.431,1.198
745.694,1.197
745.957,1.196
746.220,1.195
746.483,1.200
746.746,1.204
747.009,1.213
