Wavelength (nm),Intensity Source #45,,C:/Users/Brend/Desktop/MÃ s LED Spectras/Spectrometer Data.sp,,,Source #45,
379.792,2.242,,2018-06-13 14:27:33,,Integration Time,948 ms,
380.000,2.202,,Analyze Light,,Number of Scans to Average,25,
380.209,2.150,,,,Smoothing,1,
380.418,2.191
380.627,2.253
380.837,2.318
381.048,2.333
381.259,2.320
381.471,2.293
381.683,2.289
381.896,2.306
382.110,2.293
382.324,2.307
382.538,2.358
382.753,2.402
382.969,2.340
383.185,2.242
383.402,2.163
383.619,2.185
383.837,2.245
384.055,2.344
384.274,2.423
384.493,2.435
384.712,2.400
384.932,2.368
385.153,2.365
385.374,2.366
385.596,2.361
385.818,2.398
386.040,2.461
386.263,2.514
386.487,2.496
386.710,2.438
386.935,2.347
387.159,2.300
387.385,2.249
387.610,2.218
387.836,2.190
388.063,2.191
388.289,2.213
388.517,2.227
388.744,2.215
388.972,2.243
389.201,2.259
389.430,2.277
389.659,2.260
389.889,2.266
390.119,2.280
390.349,2.288
390.580,2.303
390.811,2.301
391.042,2.292
391.274,2.285
391.507,2.283
391.739,2.251
391.972,2.197
392.205,2.183
392.439,2.217
392.673,2.244
392.907,2.261
393.142,2.282
393.377,2.312
393.612,2.340
393.848,2.333
394.084,2.329
394.320,2.302
394.557,2.315
394.794,2.315
395.031,2.348
395.269,2.374
395.507,2.400
395.745,2.386
395.983,2.359
396.222,2.364
396.461,2.420
396.700,2.505
396.940,2.542
397.180,2.530
397.420,2.455
397.660,2.387
397.901,2.323
398.142,2.313
398.383,2.272
398.625,2.230
398.866,2.230
399.108,2.337
399.351,2.499
399.593,2.524
399.836,2.455
400.079,2.326
400.322,2.250
400.566,2.192
400.809,2.156
401.053,2.164
401.298,2.185
401.542,2.235
401.787,2.284
402.031,2.338
402.277,2.359
402.522,2.354
402.767,2.354
403.013,2.324
403.259,2.306
403.505,2.275
403.752,2.256
403.998,2.244
404.245,2.312
404.492,2.414
404.739,2.474
404.986,2.478
405.234,2.465
405.482,2.459
405.730,2.418
405.978,2.397
406.226,2.345
406.475,2.277
406.723,2.215
406.972,2.224
407.221,2.265
407.470,2.285
407.720,2.283
407.969,2.231
408.219,2.226
408.469,2.254
408.719,2.309
408.969,2.317
409.219,2.320
409.470,2.340
409.720,2.374
409.971,2.397
410.222,2.428
410.473,2.417
410.724,2.376
410.976,2.370
411.227,2.400
411.479,2.418
411.731,2.390
411.983,2.335
412.235,2.302
412.487,2.273
412.740,2.285
412.992,2.308
413.245,2.323
413.497,2.309
413.750,2.283
414.003,2.241
414.257,2.182
414.510,2.153
414.763,2.184
415.017,2.232
415.270,2.256
415.524,2.243
415.778,2.230
416.032,2.231
416.286,2.273
416.540,2.312
416.794,2.348
417.049,2.345
417.303,2.350
417.558,2.375
417.812,2.390
418.067,2.397
418.322,2.377
418.577,2.360
418.832,2.323
419.088,2.267
419.343,2.253
419.598,2.226
419.854,2.247
420.109,2.268
420.365,2.342
420.621,2.386
420.876,2.426
421.132,2.424
421.388,2.391
421.645,2.346
421.901,2.336
422.157,2.347
422.413,2.342
422.670,2.307
422.926,2.268
423.183,2.205
423.439,2.204
423.696,2.252
423.953,2.396
424.210,2.499
424.467,2.503
424.724,2.435
424.981,2.336
425.238,2.308
425.495,2.339
425.753,2.380
426.010,2.394
426.267,2.361
426.525,2.373
426.782,2.394
427.040,2.421
427.298,2.451
427.555,2.479
427.813,2.482
428.071,2.457
428.329,2.441
428.587,2.422
428.845,2.422
429.103,2.409
429.361,2.397
429.619,2.359
429.878,2.335
430.136,2.335
430.394,2.330
430.653,2.383
430.911,2.487
431.170,2.609
431.428,2.632
431.687,2.586
431.946,2.510
432.204,2.468
432.463,2.476
432.722,2.459
432.981,2.433
433.240,2.406
433.499,2.429
433.758,2.494
434.017,2.490
434.276,2.425
434.535,2.300
434.794,2.206
435.053,2.190
435.312,2.211
435.572,2.230
435.831,2.226
436.090,2.259
436.350,2.298
436.609,2.339
436.869,2.322
437.128,2.288
437.388,2.228
437.647,2.211
437.907,2.235
438.166,2.268
438.426,2.244
438.686,2.210
438.946,2.183
439.205,2.206
439.465,2.232
439.725,2.304
439.985,2.356
440.245,2.357
440.505,2.330
440.765,2.313
441.025,2.299
441.285,2.320
441.545,2.356
441.805,2.393
442.065,2.341
442.325,2.246
442.585,2.192
442.846,2.178
443.106,2.232
443.366,2.291
443.626,2.336
443.887,2.342
444.147,2.300
444.407,2.279
444.668,2.250
444.928,2.242
445.189,2.250
445.449,2.275
445.710,2.295
445.970,2.301
446.231,2.299
446.491,2.332
446.752,2.325
447.012,2.331
447.273,2.371
447.534,2.431
447.794,2.404
448.055,2.304
448.316,2.242
448.577,2.258
448.837,2.299
449.098,2.357
449.359,2.402
449.620,2.402
449.881,2.347
450.142,2.276
450.403,2.270
450.664,2.295
450.924,2.314
451.185,2.302
451.446,2.302
451.707,2.317
451.969,2.367
452.230,2.392
452.491,2.440
452.752,2.433
453.013,2.403
453.274,2.376
453.535,2.374
453.796,2.344
454.058,2.275
454.319,2.235
454.580,2.267
454.841,2.339
455.103,2.343
455.364,2.286
455.625,2.230
455.887,2.219
456.148,2.248
456.409,2.300
456.671,2.357
456.932,2.389
457.194,2.371
457.455,2.350
457.716,2.351
457.978,2.392
458.239,2.412
458.501,2.414
458.763,2.359
459.024,2.313
459.286,2.296
459.547,2.319
459.809,2.313
460.071,2.330
460.332,2.377
460.594,2.430
460.856,2.437
461.117,2.376
461.379,2.371
461.641,2.385
461.903,2.411
462.164,2.399
462.426,2.389
462.688,2.391
462.950,2.387
463.212,2.403
463.474,2.380
463.736,2.352
463.998,2.351
464.260,2.424
464.522,2.531
464.784,2.543
465.046,2.452
465.308,2.365
465.570,2.343
465.832,2.391
466.094,2.437
466.356,2.493
466.618,2.542
466.880,2.520
467.142,2.434
467.405,2.365
467.667,2.391
467.929,2.468
468.191,2.551
468.454,2.585
468.716,2.623
468.978,2.627
469.241,2.563
469.503,2.498
469.765,2.448
470.028,2.464
470.290,2.411
470.552,2.332
470.815,2.256
471.077,2.241
471.340,2.276
471.602,2.300
471.865,2.273
472.128,2.194
472.390,2.146
472.653,2.130
472.915,2.144
473.178,2.155
473.441,2.200
473.703,2.264
473.966,2.354
474.229,2.424
474.492,2.454
474.755,2.393
475.017,2.360
475.280,2.342
475.543,2.390
475.806,2.361
476.069,2.306
476.332,2.245
476.595,2.247
476.858,2.260
477.121,2.236
477.384,2.193
477.647,2.191
477.910,2.224
478.173,2.258
478.436,2.243
478.699,2.233
478.962,2.216
479.226,2.257
479.489,2.285
479.752,2.345
480.015,2.401
480.279,2.481
480.542,2.537
480.805,2.532
481.069,2.474
481.332,2.409
481.595,2.378
481.859,2.426
482.122,2.469
482.386,2.466
482.649,2.412
482.913,2.350
483.177,2.291
483.440,2.194
483.704,2.120
483.967,2.137
484.231,2.218
484.495,2.322
484.759,2.384
485.022,2.391
485.286,2.380
485.550,2.360
485.814,2.291
486.078,2.204
486.342,2.153
486.606,2.212
486.869,2.282
487.133,2.332
487.397,2.380
487.662,2.418
487.926,2.418
488.190,2.393
488.454,2.376
488.718,2.383
488.982,2.356
489.246,2.343
489.511,2.324
489.775,2.327
490.039,2.347
490.304,2.347
490.568,2.319
490.832,2.286
491.097,2.313
491.361,2.357
491.626,2.388
491.890,2.384
492.155,2.387
492.419,2.395
492.684,2.380
492.949,2.369
493.213,2.389
493.478,2.462
493.743,2.482
494.008,2.397
494.272,2.294
494.537,2.274
494.802,2.324
495.067,2.404
495.332,2.469
495.597,2.523
495.862,2.521
496.127,2.507
496.392,2.465
496.657,2.401
496.922,2.343
497.187,2.326
497.452,2.357
497.718,2.438
497.983,2.481
498.248,2.479
498.513,2.415
498.779,2.429
499.044,2.494
499.310,2.511
499.575,2.461
499.841,2.418
500.106,2.418
500.372,2.386
500.637,2.381
500.903,2.451
501.168,2.530
501.434,2.523
501.700,2.417
501.966,2.356
502.231,2.320
502.497,2.314
502.763,2.271
503.029,2.228
503.295,2.226
503.561,2.241
503.827,2.298
504.093,2.337
504.359,2.366
504.625,2.372
504.891,2.339
505.157,2.335
505.423,2.279
505.690,2.214
505.956,2.151
506.222,2.173
506.489,2.287
506.755,2.412
507.021,2.497
507.288,2.537
507.554,2.514
507.821,2.492
508.087,2.465
508.354,2.520
508.621,2.555
508.887,2.549
509.154,2.514
509.421,2.493
509.687,2.452
509.954,2.402
510.221,2.359
510.488,2.398
510.755,2.458
511.022,2.534
511.289,2.510
511.556,2.472
511.823,2.435
512.090,2.505
512.357,2.541
512.624,2.561
512.891,2.522
513.159,2.488
513.426,2.461
513.693,2.475
513.960,2.507
514.228,2.499
514.495,2.476
514.763,2.448
515.030,2.440
515.298,2.395
515.565,2.381
515.833,2.381
516.100,2.394
516.368,2.395
516.636,2.385
516.904,2.406
517.171,2.389
517.439,2.392
517.707,2.361
517.975,2.358
518.243,2.372
518.511,2.391
518.779,2.340
519.047,2.327
519.315,2.324
519.583,2.334
519.851,2.265
520.119,2.216
520.387,2.205
520.656,2.230
520.924,2.266
521.192,2.312
521.461,2.350
521.729,2.388
521.997,2.421
522.266,2.434
522.534,2.421
522.803,2.419
523.071,2.399
523.340,2.342
523.609,2.278
523.877,2.243
524.146,2.250
524.415,2.276
524.684,2.315
524.952,2.312
525.221,2.293
525.490,2.315
525.759,2.374
526.028,2.409
526.297,2.351
526.566,2.295
526.835,2.259
527.104,2.276
527.373,2.309
527.642,2.322
527.912,2.292
528.181,2.246
528.450,2.239
528.719,2.283
528.989,2.377
529.258,2.459
529.528,2.482
529.797,2.431
530.067,2.403
530.336,2.377
530.606,2.357
530.875,2.292
531.145,2.262
531.414,2.270
531.684,2.331
531.954,2.362
532.224,2.347
532.493,2.254
532.763,2.195
533.033,2.197
533.303,2.251
533.573,2.306
533.843,2.278
534.113,2.250
534.383,2.194
534.653,2.197
534.923,2.221
535.193,2.263
535.463,2.328
535.733,2.381
536.004,2.425
536.274,2.442
536.544,2.408
536.814,2.347
537.085,2.274
537.355,2.275
537.626,2.350
537.896,2.422
538.166,2.443
538.437,2.412
538.707,2.371
538.978,2.359
539.249,2.398
539.519,2.430
539.790,2.398
540.061,2.357
540.331,2.380
540.602,2.475
540.873,2.539
541.144,2.556
541.414,2.524
541.685,2.502
541.956,2.479
542.227,2.470
542.498,2.435
542.769,2.407
543.040,2.421
543.311,2.496
543.582,2.589
543.853,2.634
544.124,2.657
544.396,2.670
544.667,2.674
544.938,2.657
545.209,2.524
545.480,2.436
545.752,2.377
546.023,2.437
546.294,2.431
546.566,2.391
546.837,2.329
547.109,2.313
547.380,2.312
547.652,2.299
547.923,2.294
548.195,2.339
548.466,2.437
548.738,2.544
549.009,2.562
549.281,2.519
549.553,2.422
549.824,2.312
550.096,2.240
550.368,2.227
550.640,2.262
550.911,2.309
551.183,2.393
551.455,2.525
551.727,2.625
551.999,2.608
552.271,2.506
552.543,2.419
552.815,2.378
553.087,2.419
553.359,2.474
553.631,2.513
553.903,2.505
554.175,2.510
554.447,2.543
554.719,2.562
554.991,2.551
555.263,2.525
555.535,2.492
555.808,2.460
556.080,2.415
556.352,2.390
556.624,2.382
556.897,2.374
557.169,2.375
557.441,2.363
557.714,2.341
557.986,2.333
558.258,2.305
558.531,2.340
558.803,2.375
559.076,2.426
559.348,2.409
559.621,2.372
559.893,2.370
560.166,2.383
560.438,2.387
560.711,2.352
560.983,2.327
561.256,2.323
561.528,2.352
561.801,2.401
562.074,2.470
562.346,2.543
562.619,2.609
562.892,2.605
563.164,2.557
563.437,2.525
563.710,2.518
563.983,2.481
564.255,2.414
564.528,2.418
564.801,2.495
565.074,2.557
565.346,2.526
565.619,2.480
565.892,2.496
566.165,2.506
566.438,2.452
566.711,2.369
566.984,2.345
567.257,2.366
567.529,2.417
567.802,2.499
568.075,2.593
568.348,2.599
568.621,2.576
568.894,2.525
569.167,2.511
569.440,2.476
569.713,2.401
569.986,2.364
570.259,2.336
570.532,2.384
570.805,2.426
571.078,2.449
571.351,2.465
571.625,2.479
571.898,2.460
572.171,2.402
572.444,2.351
572.717,2.384
572.990,2.468
573.263,2.479
573.536,2.426
573.809,2.326
574.083,2.290
574.356,2.314
574.629,2.423
574.902,2.496
575.175,2.520
575.448,2.451
575.721,2.403
575.995,2.381
576.268,2.387
576.541,2.435
576.814,2.494
577.087,2.557
577.361,2.583
577.634,2.580
577.907,2.518
578.180,2.428
578.453,2.376
578.727,2.395
579.000,2.436
579.273,2.481
579.546,2.548
579.820,2.642
580.093,2.675
580.366,2.639
580.639,2.553
580.913,2.521
581.186,2.514
581.459,2.534
581.732,2.492
582.005,2.466
582.279,2.440
582.552,2.462
582.825,2.491
583.098,2.520
583.372,2.557
583.645,2.583
583.918,2.622
584.191,2.634
584.464,2.633
584.738,2.619
585.011,2.617
585.284,2.610
585.557,2.597
585.831,2.610
586.104,2.685
586.377,2.815
586.650,2.905
586.923,2.908
587.196,2.854
587.470,2.765
587.743,2.716
588.016,2.683
588.289,2.711
588.562,2.773
588.835,2.802
589.109,2.772
589.382,2.707
589.655,2.655
589.928,2.637
590.201,2.621
590.474,2.674
590.747,2.749
591.020,2.841
591.293,2.872
591.567,2.880
591.840,2.841
592.113,2.801
592.386,2.734
592.659,2.683
592.932,2.666
593.205,2.710
593.478,2.749
593.751,2.741
594.024,2.716
594.297,2.679
594.570,2.672
594.843,2.714
595.116,2.793
595.389,2.856
595.662,2.851
595.934,2.855
596.207,2.894
596.480,2.963
596.753,3.028
597.026,3.033
597.299,3.026
597.572,3.008
597.844,2.999
598.117,2.941
598.390,2.888
598.663,2.859
598.936,2.890
599.208,2.924
599.481,2.958
599.754,2.988
600.026,2.945
600.299,2.896
600.572,2.857
600.844,2.869
601.117,2.850
601.390,2.837
601.662,2.842
601.935,2.855
602.207,2.866
602.480,2.907
602.752,2.951
603.025,2.951
603.297,2.949
603.570,3.019
603.842,3.170
604.115,3.278
604.387,3.353
604.660,3.346
604.932,3.348
605.204,3.382
605.477,3.468
605.749,3.597
606.021,3.699
606.294,3.785
606.566,3.797
606.838,3.862
607.110,3.979
607.383,4.174
607.655,4.355
607.927,4.543
608.199,4.716
608.471,4.854
608.743,4.902
609.015,4.910
609.287,4.916
609.559,4.950
609.831,5.015
610.103,5.066
610.375,5.074
610.647,5.013
610.919,4.894
611.191,4.776
611.463,4.673
611.735,4.587
612.007,4.472
612.278,4.382
612.550,4.333
612.822,4.352
613.094,4.392
613.365,4.391
613.637,4.429
613.909,4.447
614.180,4.498
614.452,4.477
614.723,4.426
614.995,4.361
615.266,4.340
615.538,4.410
615.809,4.511
616.081,4.558
616.352,4.548
616.623,4.527
616.895,4.538
617.166,4.545
617.437,4.557
617.709,4.612
617.980,4.710
618.251,4.828
618.522,4.932
618.793,5.054
619.065,5.224
619.336,5.295
619.607,5.292
619.878,5.289
620.149,5.399
620.420,5.504
620.691,5.537
620.962,5.566
621.232,5.663
621.503,5.712
621.774,5.742
622.045,5.754
622.316,5.872
622.586,6.031
622.857,6.216
623.128,6.335
623.398,6.408
623.669,6.444
623.940,6.491
624.210,6.521
624.481,6.626
624.751,6.729
625.021,6.833
625.292,6.874
625.562,6.970
625.833,7.080
626.103,7.202
626.373,7.280
626.643,7.407
626.914,7.566
627.184,7.779
627.454,7.964
627.724,8.105
627.994,8.234
628.264,8.370
628.534,8.487
628.804,8.583
629.074,8.718
629.344,8.883
629.614,9.049
629.884,9.158
630.154,9.266
630.424,9.373
630.693,9.479
630.963,9.559
631.233,9.641
631.502,9.804
631.772,10.070
632.041,10.365
632.311,10.607
632.581,10.791
632.850,10.957
633.119,11.048
633.389,11.132
633.658,11.240
633.928,11.480
634.197,11.781
634.466,12.105
634.735,12.405
635.004,12.616
635.274,12.802
635.543,12.982
635.812,13.200
636.081,13.435
636.350,13.679
636.619,13.956
636.888,14.220
637.157,14.471
637.426,14.749
637.694,15.038
637.963,15.311
638.232,15.585
638.501,15.878
638.769,16.235
639.038,16.602
639.307,17.005
639.575,17.409
639.844,17.747
640.112,18.062
640.381,18.368
640.649,18.756
640.917,19.202
641.186,19.644
641.454,20.141
641.722,20.625
641.991,21.169
642.259,21.631
642.527,22.087
642.795,22.559
643.063,23.039
643.331,23.559
643.599,24.098
643.867,24.777
644.135,25.457
644.403,26.181
644.671,26.816
644.939,27.480
645.206,28.120
645.474,28.816
645.742,29.522
646.009,30.216
646.277,30.970
646.545,31.772
646.812,32.705
647.080,33.668
647.347,34.607
647.615,35.471
647.882,36.258
648.149,37.069
648.417,37.901
648.684,38.804
648.951,39.769
649.219,40.752
649.486,41.719
649.753,42.629
650.020,43.513
650.287,44.383
650.554,45.252
650.821,46.125
651.088,46.966
651.355,47.870
651.622,48.730
651.889,49.639
652.155,50.473
652.422,51.356
652.689,52.260
652.956,53.178
653.222,54.096
653.489,55.018
653.755,55.859
654.022,56.578
654.288,57.211
654.555,57.918
654.821,58.770
655.088,59.706
655.354,60.687
655.620,61.698
655.887,62.711
656.153,63.752
656.419,64.791
656.685,65.861
656.951,67.001
657.217,68.234
657.483,69.552
657.749,70.911
658.015,72.318
658.281,73.740
658.547,75.065
658.813,76.281
659.079,77.412
659.345,78.484
659.610,79.472
659.876,80.363
660.142,81.178
660.407,81.892
660.673,82.465
660.939,82.875
661.204,83.046
661.470,83.004
661.735,82.747
662.000,82.323
662.266,81.612
662.531,80.604
662.796,79.296
663.062,77.735
663.327,75.911
663.592,73.895
663.857,71.699
664.122,69.342
664.388,66.807
664.653,64.181
664.918,61.513
665.183,58.811
665.448,56.138
665.712,53.532
665.977,50.993
666.242,48.489
666.507,45.940
666.772,43.518
667.037,41.239
667.301,39.195
667.566,37.277
667.831,35.509
668.095,33.877
668.360,32.399
668.624,30.966
668.889,29.702
669.153,28.494
669.418,27.454
669.682,26.484
669.946,25.626
670.211,24.869
670.475,24.125
670.739,23.415
671.004,22.712
671.268,22.070
671.532,21.494
671.796,20.736
672.060,19.968
672.324,19.170
672.588,18.566
672.852,17.998
673.116,17.550
673.380,17.148
673.644,16.499
673.908,15.721
674.172,14.921
674.436,14.389
674.700,13.897
674.963,13.425
675.227,12.953
675.491,12.440
675.754,11.938
676.018,11.445
676.282,11.035
676.545,10.612
676.809,10.157
677.072,9.697
677.336,9.258
677.599,8.894
677.863,8.536
678.126,8.224
678.389,7.965
678.653,7.718
678.916,7.439
679.179,7.084
679.442,6.767
679.706,6.529
679.969,6.307
680.232,6.101
680.495,5.911
680.758,5.759
681.021,5.559
681.284,5.296
681.547,5.031
681.810,4.862
682.073,4.787
682.336,4.704
682.599,4.559
682.862,4.389
683.125,4.281
683.388,4.220
683.651,4.135
683.913,4.033
684.176,3.862
684.439,3.686
684.702,3.497
684.964,3.384
685.227,3.334
685.490,3.347
685.752,3.404
686.015,3.398
686.277,3.326
686.540,3.205
686.802,3.072
687.065,3.009
687.327,2.981
687.590,2.979
687.852,2.922
688.115,2.815
688.377,2.744
688.639,2.720
688.902,2.721
689.164,2.735
689.426,2.783
689.689,2.839
689.951,2.837
690.213,2.795
690.475,2.760
690.737,2.735
691.000,2.691
691.262,2.646
691.524,2.652
691.786,2.708
692.048,2.768
692.310,2.752
692.572,2.650
692.834,2.531
693.096,2.484
693.358,2.534
693.620,2.619
693.882,2.691
694.144,2.708
694.406,2.666
694.668,2.617
694.930,2.568
695.192,2.540
695.453,2.536
695.715,2.541
695.977,2.528
696.239,2.475
696.501,2.446
696.762,2.465
697.024,2.495
697.286,2.467
697.548,2.428
697.809,2.396
698.071,2.381
698.333,2.372
698.594,2.367
698.856,2.406
699.118,2.440
699.379,2.477
699.641,2.519
699.902,2.573
700.164,2.584
700.426,2.549
700.687,2.475
700.949,2.445
701.210,2.425
701.472,2.405
701.733,2.360
701.995,2.350
702.256,2.359
702.518,2.376
702.779,2.364
703.041,2.417
703.302,2.499
703.563,2.522
703.825,2.472
704.086,2.400
704.348,2.380
704.609,2.408
704.871,2.479
705.132,2.564
705.393,2.550
705.655,2.508
705.916,2.486
706.177,2.510
706.439,2.541
706.700,2.557
706.961,2.564
707.223,2.570
707.484,2.493
707.745,2.430
708.007,2.373
708.268,2.348
708.529,2.323
708.790,2.264
709.052,2.241
709.313,2.272
709.574,2.342
709.835,2.404
710.097,2.405
710.358,2.336
710.619,2.261
710.881,2.189
711.142,2.169
711.403,2.145
711.664,2.158
711.926,2.119
712.187,2.138
712.448,2.167
712.709,2.243
712.970,2.296
713.232,2.333
713.493,2.358
713.754,2.370
714.015,2.384
714.277,2.427
714.538,2.477
714.799,2.556
715.060,2.592
715.322,2.596
715.583,2.533
715.844,2.467
716.105,2.394
716.367,2.342
716.628,2.324
716.889,2.331
717.150,2.318
717.411,2.282
717.673,2.293
717.934,2.342
718.195,2.394
718.457,2.370
718.718,2.291
718.979,2.245
719.240,2.261
719.502,2.328
719.763,2.384
720.024,2.411
720.286,2.426
720.547,2.392
720.808,2.349
721.069,2.317
721.331,2.340
721.592,2.406
721.853,2.445
722.115,2.455
722.376,2.456
722.638,2.436
722.899,2.426
723.160,2.377
723.422,2.344
723.683,2.322
723.944,2.352
724.206,2.374
724.467,2.376
724.729,2.346
724.990,2.366
725.252,2.398
725.513,2.375
725.775,2.290
726.036,2.222
726.298,2.219
726.559,2.278
726.821,2.302
727.082,2.319
727.344,2.294
727.605,2.299
727.867,2.270
728.128,2.288
728.390,2.295
728.652,2.358
728.913,2.436
729.175,2.498
729.436,2.508
729.698,2.507
729.960,2.477
730.221,2.435
730.483,2.335
730.745,2.293
731.007,2.287
731.268,2.298
731.530,2.307
731.792,2.315
732.054,2.353
732.315,2.385
732.577,2.414
732.839,2.382
733.101,2.334
733.363,2.298
733.625,2.289
733.887,2.310
734.149,2.311
734.411,2.347
734.673,2.371
734.935,2.392
735.197,2.366
735.459,2.373
735.721,2.386
735.983,2.386
736.245,2.315
736.507,2.294
736.769,2.325
737.031,2.385
737.293,2.373
737.555,2.315
737.818,2.266
738.080,2.231
738.342,2.237
738.604,2.237
738.867,2.248
739.129,2.235
739.391,2.229
739.654,2.229
739.916,2.249
740.178,2.287
740.441,2.348
740.703,2.379
740.966,2.351
741.228,2.308
741.491,2.268
741.753,2.283
742.016,2.288
742.278,2.301
742.541,2.306
742.804,2.321
743.066,2.365
743.329,2.391
743.592,2.373
743.854,2.356
744.117,2.371
744.380,2.412
744.643,2.404
744.905,2.351
745.168,2.319
745.431,2.296
745.694,2.283
745.957,2.259
746.220,2.245
746.483,2.242
746.746,2.248
747.009,2.300
747.272,2.411
