Wavelength (nm),Intensity Source #41,,C:/Users/Brend/Desktop/MÃ s LED Spectras/Spectrometer Data.sp,,,Source #41,
379.792,2.147,,2018-06-13 14:20:53,,Integration Time,902 ms,
380.000,2.102,,Analyze Light,,Number of Scans to Average,25,
380.209,2.053,,,,Smoothing,1,
380.418,2.093
380.627,2.162
380.837,2.232
381.048,2.247
381.259,2.231
381.471,2.203
381.683,2.202
381.896,2.224
382.110,2.223
382.324,2.244
382.538,2.298
382.753,2.343
382.969,2.282
383.185,2.179
383.402,2.098
383.619,2.114
383.837,2.173
384.055,2.261
384.274,2.332
384.493,2.344
384.712,2.318
384.932,2.290
385.153,2.283
385.374,2.281
385.596,2.278
385.818,2.317
386.040,2.374
386.263,2.419
386.487,2.399
386.710,2.346
386.935,2.262
387.159,2.213
387.385,2.167
387.610,2.141
387.836,2.123
388.063,2.128
388.289,2.150
388.517,2.159
388.744,2.146
388.972,2.173
389.201,2.190
389.430,2.208
389.659,2.193
389.889,2.198
390.119,2.210
390.349,2.216
390.580,2.230
390.811,2.227
391.042,2.219
391.274,2.212
391.507,2.210
391.739,2.178
391.972,2.128
392.205,2.120
392.439,2.160
392.673,2.193
392.907,2.209
393.142,2.225
393.377,2.250
393.612,2.273
393.848,2.264
394.084,2.250
394.320,2.222
394.557,2.231
394.794,2.236
395.031,2.269
395.269,2.291
395.507,2.314
395.745,2.300
395.983,2.276
396.222,2.278
396.461,2.329
396.700,2.411
396.940,2.445
397.180,2.425
397.420,2.349
397.660,2.279
397.901,2.220
398.142,2.213
398.383,2.183
398.625,2.149
398.866,2.151
399.108,2.247
399.351,2.400
399.593,2.431
399.836,2.379
400.079,2.268
400.322,2.200
400.566,2.141
400.809,2.099
401.053,2.097
401.298,2.112
401.542,2.161
401.787,2.214
402.031,2.268
402.277,2.290
402.522,2.284
402.767,2.285
403.013,2.253
403.259,2.233
403.505,2.203
403.752,2.187
403.998,2.175
404.245,2.230
404.492,2.318
404.739,2.378
404.986,2.396
405.234,2.396
405.482,2.394
405.730,2.352
405.978,2.326
406.226,2.270
406.475,2.200
406.723,2.139
406.972,2.146
407.221,2.185
407.470,2.208
407.720,2.211
407.969,2.166
408.219,2.162
408.469,2.184
408.719,2.235
408.969,2.240
409.219,2.245
409.470,2.255
409.720,2.280
409.971,2.295
410.222,2.328
410.473,2.327
410.724,2.300
410.976,2.295
411.227,2.318
411.479,2.327
411.731,2.296
411.983,2.241
412.235,2.209
412.487,2.186
412.740,2.202
412.992,2.221
413.245,2.235
413.497,2.222
413.750,2.204
414.003,2.165
414.257,2.110
414.510,2.081
414.763,2.105
415.017,2.147
415.270,2.163
415.524,2.153
415.778,2.146
416.032,2.154
416.286,2.196
416.540,2.239
416.794,2.277
417.049,2.271
417.303,2.266
417.558,2.285
417.812,2.301
418.067,2.313
418.322,2.299
418.577,2.286
418.832,2.254
419.088,2.200
419.343,2.180
419.598,2.148
419.854,2.163
420.109,2.192
420.365,2.272
420.621,2.317
420.876,2.350
421.132,2.346
421.388,2.313
421.645,2.269
421.901,2.254
422.157,2.264
422.413,2.268
422.670,2.247
422.926,2.222
423.183,2.162
423.439,2.152
423.696,2.190
423.953,2.324
424.210,2.429
424.467,2.435
424.724,2.371
424.981,2.269
425.238,2.240
425.495,2.261
425.753,2.297
426.010,2.309
426.267,2.282
426.525,2.292
426.782,2.309
427.040,2.332
427.298,2.361
427.555,2.391
427.813,2.400
428.071,2.385
428.329,2.370
428.587,2.346
428.845,2.341
429.103,2.325
429.361,2.315
429.619,2.279
429.878,2.259
430.136,2.261
430.394,2.262
430.653,2.321
430.911,2.426
431.170,2.541
431.428,2.559
431.687,2.506
431.946,2.432
432.204,2.388
432.463,2.389
432.722,2.368
432.981,2.340
433.240,2.316
433.499,2.342
433.758,2.408
434.017,2.414
434.276,2.364
434.535,2.252
434.794,2.153
435.053,2.120
435.312,2.131
435.572,2.151
435.831,2.157
436.090,2.193
436.350,2.236
436.609,2.274
436.869,2.255
437.128,2.223
437.388,2.165
437.647,2.152
437.907,2.176
438.166,2.203
438.426,2.177
438.686,2.142
438.946,2.121
439.205,2.144
439.465,2.172
439.725,2.238
439.985,2.289
440.245,2.289
440.505,2.262
440.765,2.239
441.025,2.216
441.285,2.226
441.545,2.257
441.805,2.299
442.065,2.257
442.325,2.174
442.585,2.128
442.846,2.119
443.106,2.170
443.366,2.222
443.626,2.259
443.887,2.265
444.147,2.226
444.407,2.210
444.668,2.180
444.928,2.168
445.189,2.173
445.449,2.196
445.710,2.211
445.970,2.213
446.231,2.204
446.491,2.232
446.752,2.221
447.012,2.226
447.273,2.267
447.534,2.326
447.794,2.306
448.055,2.212
448.316,2.154
448.577,2.168
448.837,2.209
449.098,2.265
449.359,2.311
449.620,2.317
449.881,2.270
450.142,2.209
450.403,2.205
450.664,2.229
450.924,2.239
451.185,2.225
451.446,2.228
451.707,2.242
451.969,2.284
452.230,2.305
452.491,2.353
452.752,2.353
453.013,2.327
453.274,2.299
453.535,2.294
453.796,2.262
454.058,2.196
454.319,2.160
454.580,2.199
454.841,2.273
455.103,2.276
455.364,2.221
455.625,2.171
455.887,2.166
456.148,2.189
456.409,2.235
456.671,2.285
456.932,2.315
457.194,2.298
457.455,2.280
457.716,2.277
457.978,2.309
458.239,2.322
458.501,2.326
458.763,2.280
459.024,2.240
459.286,2.222
459.547,2.238
459.809,2.228
460.071,2.243
460.332,2.287
460.594,2.339
460.856,2.349
461.117,2.294
461.379,2.287
461.641,2.296
461.903,2.323
462.164,2.321
462.426,2.318
462.688,2.322
462.950,2.304
463.212,2.309
463.474,2.273
463.736,2.247
463.998,2.254
464.260,2.336
464.522,2.444
464.784,2.459
465.046,2.375
465.308,2.290
465.570,2.267
465.832,2.311
466.094,2.352
466.356,2.398
466.618,2.441
466.880,2.430
467.142,2.355
467.405,2.289
467.667,2.307
467.929,2.376
468.191,2.454
468.454,2.489
468.716,2.528
468.978,2.534
469.241,2.477
469.503,2.417
469.765,2.373
470.028,2.393
470.290,2.347
470.552,2.264
470.815,2.186
471.077,2.172
471.340,2.207
471.602,2.227
471.865,2.196
472.128,2.124
472.390,2.077
472.653,2.063
472.915,2.076
473.178,2.087
473.441,2.127
473.703,2.188
473.966,2.275
474.229,2.343
474.492,2.369
474.755,2.303
475.017,2.263
475.280,2.247
475.543,2.296
475.806,2.271
476.069,2.222
476.332,2.171
476.595,2.179
476.858,2.190
477.121,2.163
477.384,2.120
477.647,2.123
477.910,2.157
478.173,2.185
478.436,2.166
478.699,2.154
478.962,2.141
479.226,2.183
479.489,2.219
479.752,2.276
480.015,2.324
480.279,2.391
480.542,2.438
480.805,2.435
481.069,2.383
481.332,2.331
481.595,2.308
481.859,2.353
482.122,2.390
482.386,2.381
482.649,2.332
482.913,2.275
483.177,2.221
483.440,2.134
483.704,2.070
483.967,2.086
484.231,2.158
484.495,2.250
484.759,2.309
485.022,2.315
485.286,2.304
485.550,2.281
485.814,2.214
486.078,2.133
486.342,2.085
486.606,2.139
486.869,2.201
487.133,2.252
487.397,2.304
487.662,2.348
487.926,2.351
488.190,2.336
488.454,2.327
488.718,2.342
488.982,2.319
489.246,2.309
489.511,2.283
489.775,2.273
490.039,2.276
490.304,2.267
490.568,2.236
490.832,2.206
491.097,2.231
491.361,2.273
491.626,2.301
491.890,2.298
492.155,2.305
492.419,2.319
492.684,2.308
492.949,2.307
493.213,2.330
493.478,2.400
493.743,2.412
494.008,2.328
494.272,2.228
494.537,2.206
494.802,2.251
495.067,2.321
495.332,2.379
495.597,2.429
495.862,2.434
496.127,2.423
496.392,2.382
496.657,2.313
496.922,2.250
497.187,2.230
497.452,2.266
497.718,2.349
497.983,2.398
498.248,2.406
498.513,2.354
498.779,2.367
499.044,2.421
499.310,2.433
499.575,2.382
499.841,2.335
500.106,2.333
500.372,2.300
500.637,2.295
500.903,2.360
501.168,2.434
501.434,2.430
501.700,2.338
501.966,2.285
502.231,2.251
502.497,2.239
502.763,2.198
503.029,2.162
503.295,2.158
503.561,2.167
503.827,2.211
504.093,2.243
504.359,2.271
504.625,2.285
504.891,2.263
505.157,2.262
505.423,2.210
505.690,2.149
505.956,2.087
506.222,2.106
506.489,2.215
506.755,2.342
507.021,2.426
507.288,2.464
507.554,2.441
507.821,2.419
508.087,2.395
508.354,2.445
508.621,2.474
508.887,2.457
509.154,2.411
509.421,2.385
509.687,2.350
509.954,2.310
510.221,2.274
510.488,2.318
510.755,2.377
511.022,2.445
511.289,2.418
511.556,2.380
511.823,2.346
512.090,2.413
512.357,2.441
512.624,2.460
512.891,2.424
513.159,2.399
513.426,2.374
513.693,2.382
513.960,2.416
514.228,2.417
514.495,2.399
514.763,2.371
515.030,2.359
515.298,2.322
515.565,2.315
515.833,2.319
516.100,2.329
516.368,2.326
516.636,2.317
516.904,2.344
517.171,2.332
517.439,2.333
517.707,2.297
517.975,2.295
518.243,2.312
518.511,2.331
518.779,2.280
519.047,2.262
519.315,2.261
519.583,2.270
519.851,2.210
520.119,2.163
520.387,2.152
520.656,2.164
520.924,2.188
521.192,2.228
521.461,2.270
521.729,2.310
521.997,2.340
522.266,2.354
522.534,2.347
522.803,2.352
523.071,2.337
523.340,2.281
523.609,2.212
523.877,2.176
524.146,2.184
524.415,2.212
524.684,2.248
524.952,2.245
525.221,2.231
525.490,2.253
525.759,2.302
526.028,2.329
526.297,2.271
526.566,2.217
526.835,2.182
527.104,2.196
527.373,2.224
527.642,2.237
527.912,2.210
528.181,2.168
528.450,2.163
528.719,2.205
528.989,2.294
529.258,2.372
529.528,2.399
529.797,2.355
530.067,2.329
530.336,2.301
530.606,2.282
530.875,2.227
531.145,2.207
531.414,2.216
531.684,2.267
531.954,2.287
532.224,2.269
532.493,2.178
532.763,2.119
533.033,2.115
533.303,2.171
533.573,2.230
533.843,2.210
534.113,2.186
534.383,2.136
534.653,2.144
534.923,2.169
535.193,2.209
535.463,2.271
535.733,2.317
536.004,2.356
536.274,2.367
536.544,2.332
536.814,2.275
537.085,2.209
537.355,2.217
537.626,2.294
537.896,2.364
538.166,2.385
538.437,2.355
538.707,2.317
538.978,2.306
539.249,2.343
539.519,2.372
539.790,2.337
540.061,2.295
540.331,2.312
540.602,2.398
540.873,2.456
541.144,2.474
541.414,2.448
541.685,2.432
541.956,2.409
542.227,2.399
542.498,2.365
542.769,2.345
543.040,2.364
543.311,2.437
543.582,2.520
543.853,2.564
544.124,2.581
544.396,2.597
544.667,2.602
544.938,2.592
545.209,2.466
545.480,2.380
545.752,2.324
546.023,2.387
546.294,2.390
546.566,2.357
546.837,2.292
547.109,2.270
547.380,2.263
547.652,2.255
547.923,2.248
548.195,2.284
548.466,2.365
548.738,2.464
549.009,2.481
549.281,2.445
549.553,2.360
549.824,2.259
550.096,2.192
550.368,2.176
550.640,2.209
550.911,2.255
551.183,2.337
551.455,2.466
551.727,2.559
551.999,2.542
552.271,2.440
552.543,2.351
552.815,2.306
553.087,2.341
553.359,2.397
553.631,2.442
553.903,2.443
554.175,2.454
554.447,2.491
554.719,2.509
554.991,2.503
555.263,2.478
555.535,2.444
555.808,2.407
556.080,2.361
556.352,2.336
556.624,2.325
556.897,2.311
557.169,2.308
557.441,2.296
557.714,2.273
557.986,2.268
558.258,2.243
558.531,2.284
558.803,2.319
559.076,2.366
559.348,2.345
559.621,2.300
559.893,2.292
560.166,2.302
560.438,2.311
560.711,2.281
560.983,2.262
561.256,2.265
561.528,2.303
561.801,2.352
562.074,2.415
562.346,2.477
562.619,2.534
562.892,2.533
563.164,2.491
563.437,2.463
563.710,2.453
563.983,2.415
564.255,2.354
564.528,2.363
564.801,2.440
565.074,2.500
565.346,2.472
565.619,2.434
565.892,2.455
566.165,2.464
566.438,2.409
566.711,2.326
566.984,2.301
567.257,2.314
567.529,2.358
567.802,2.434
568.075,2.520
568.348,2.529
568.621,2.511
568.894,2.468
569.167,2.453
569.440,2.417
569.713,2.346
569.986,2.316
570.259,2.289
570.532,2.334
570.805,2.373
571.078,2.404
571.351,2.428
571.625,2.447
571.898,2.432
572.171,2.373
572.444,2.321
572.717,2.349
572.990,2.436
573.263,2.450
573.536,2.405
573.809,2.310
574.083,2.275
574.356,2.296
574.629,2.395
574.902,2.464
575.175,2.481
575.448,2.416
575.721,2.372
575.995,2.360
576.268,2.371
576.541,2.419
576.814,2.469
577.087,2.523
577.361,2.542
577.634,2.538
577.907,2.480
578.180,2.400
578.453,2.353
578.727,2.376
579.000,2.417
579.273,2.467
579.546,2.536
579.820,2.628
580.093,2.656
580.366,2.622
580.639,2.544
580.913,2.518
581.186,2.513
581.459,2.531
581.732,2.486
582.005,2.460
582.279,2.432
582.552,2.460
582.825,2.487
583.098,2.515
583.372,2.546
583.645,2.573
583.918,2.617
584.191,2.638
584.464,2.640
584.738,2.631
585.011,2.632
585.284,2.627
585.557,2.613
585.831,2.624
586.104,2.698
586.377,2.819
586.650,2.898
586.923,2.898
587.196,2.850
587.470,2.772
587.743,2.722
588.016,2.686
588.289,2.708
588.562,2.773
588.835,2.805
589.109,2.783
589.382,2.724
589.655,2.680
589.928,2.669
590.201,2.661
590.474,2.720
590.747,2.797
591.020,2.884
591.293,2.918
591.567,2.926
591.840,2.889
592.113,2.846
592.386,2.780
592.659,2.725
592.932,2.707
593.205,2.746
593.478,2.786
593.751,2.777
594.024,2.756
594.297,2.733
594.570,2.740
594.843,2.788
595.116,2.859
595.389,2.916
595.662,2.913
595.934,2.921
596.207,2.963
596.480,3.037
596.753,3.105
597.026,3.120
597.299,3.118
597.572,3.109
597.844,3.096
598.117,3.042
598.390,2.988
598.663,2.956
598.936,2.978
599.208,3.021
599.481,3.066
599.754,3.109
600.026,3.066
600.299,3.019
600.572,2.982
600.844,2.989
601.117,2.976
601.390,2.973
601.662,2.997
601.935,3.024
602.207,3.053
602.480,3.112
602.752,3.177
603.025,3.188
603.297,3.192
603.570,3.256
603.842,3.396
604.115,3.498
604.387,3.572
604.660,3.562
604.932,3.568
605.204,3.609
605.477,3.709
605.749,3.848
606.021,3.963
606.294,4.065
606.566,4.093
606.838,4.166
607.110,4.290
607.383,4.500
607.655,4.707
607.927,4.915
608.199,5.100
608.471,5.241
608.743,5.296
609.015,5.313
609.287,5.334
609.559,5.388
609.831,5.466
610.103,5.517
610.375,5.526
610.647,5.466
610.919,5.361
611.191,5.257
611.463,5.177
611.735,5.106
612.007,5.005
612.278,4.917
612.550,4.872
612.822,4.894
613.094,4.951
613.365,4.968
613.637,5.017
613.909,5.034
614.180,5.078
614.452,5.060
614.723,5.020
614.995,4.974
615.266,4.974
615.538,5.059
615.809,5.172
616.081,5.225
616.352,5.222
616.623,5.211
616.895,5.248
617.166,5.286
617.437,5.332
617.709,5.393
617.980,5.496
618.251,5.618
618.522,5.743
618.793,5.888
619.065,6.079
619.336,6.172
619.607,6.194
619.878,6.210
620.149,6.339
620.420,6.463
620.691,6.520
620.962,6.573
621.232,6.698
621.503,6.790
621.774,6.870
622.045,6.930
622.316,7.092
622.586,7.279
622.857,7.496
623.128,7.643
623.398,7.769
623.669,7.858
623.940,7.950
624.210,8.025
624.481,8.180
624.751,8.344
625.021,8.501
625.292,8.588
625.562,8.732
625.833,8.882
626.103,9.033
626.373,9.144
626.643,9.314
626.914,9.507
627.184,9.734
627.454,9.924
627.724,10.086
627.994,10.234
628.264,10.389
628.534,10.523
628.804,10.645
629.074,10.815
629.344,11.015
629.614,11.214
629.884,11.352
630.154,11.481
630.424,11.612
630.693,11.745
630.963,11.874
631.233,12.002
631.502,12.207
631.772,12.501
632.041,12.826
632.311,13.096
632.581,13.307
632.850,13.498
633.119,13.630
633.389,13.762
633.658,13.941
633.928,14.246
634.197,14.623
634.466,15.014
634.735,15.401
635.004,15.705
635.274,15.997
635.543,16.273
635.812,16.607
636.081,16.975
636.350,17.373
636.619,17.778
636.888,18.163
637.157,18.551
637.426,18.975
637.694,19.414
637.963,19.841
638.232,20.288
638.501,20.750
638.769,21.275
639.038,21.812
639.307,22.376
639.575,22.932
639.844,23.425
640.112,23.903
640.381,24.361
640.649,24.899
640.917,25.512
641.186,26.157
641.454,26.850
641.722,27.534
641.991,28.258
642.259,28.933
642.527,29.644
642.795,30.421
643.063,31.223
643.331,32.076
643.599,32.933
643.867,33.913
644.135,34.876
644.403,35.884
644.671,36.822
644.939,37.795
645.206,38.749
645.474,39.752
645.742,40.735
646.009,41.715
646.277,42.756
646.545,43.851
646.812,45.021
647.080,46.192
647.347,47.357
647.615,48.475
647.882,49.540
648.149,50.583
648.417,51.628
648.684,52.736
648.951,53.926
649.219,55.156
649.486,56.341
649.753,57.467
650.020,58.522
650.287,59.537
650.554,60.498
650.821,61.401
651.088,62.251
651.355,63.137
651.622,64.022
651.889,64.973
652.155,65.894
652.422,66.890
652.689,67.939
652.956,69.016
653.222,70.116
653.489,71.265
653.755,72.409
654.022,73.488
654.288,74.516
654.555,75.632
654.821,76.890
655.088,78.269
655.354,79.714
655.620,81.228
655.887,82.685
656.153,84.039
656.419,85.204
656.685,86.194
656.951,87.042
657.217,87.766
657.483,88.399
657.749,88.927
658.015,89.345
658.281,89.609
658.547,89.686
658.813,89.585
659.079,89.323
659.345,88.899
659.610,88.300
659.876,87.488
660.142,86.416
660.407,84.977
660.673,83.073
660.939,80.733
661.204,78.048
661.470,75.161
661.735,72.149
662.000,69.069
662.266,65.920
662.531,62.700
662.796,59.480
663.062,56.324
663.327,53.278
663.592,50.408
663.857,47.711
664.122,45.177
664.388,42.765
664.653,40.546
664.918,38.545
665.183,36.715
665.448,35.054
665.712,33.533
665.977,32.164
666.242,30.881
666.507,29.590
666.772,28.386
667.037,27.246
667.301,26.276
667.566,25.336
667.831,24.486
668.095,23.650
668.360,22.882
668.624,22.065
668.889,21.351
669.153,20.631
669.418,19.993
669.682,19.350
669.946,18.759
670.211,18.236
670.475,17.688
670.739,17.152
671.004,16.604
671.268,16.124
671.532,15.686
671.796,15.068
672.060,14.409
672.324,13.719
672.588,13.210
672.852,12.748
673.116,12.417
673.380,12.131
673.644,11.602
673.908,10.953
674.172,10.283
674.436,9.888
674.700,9.525
674.963,9.181
675.227,8.827
675.491,8.422
675.754,8.023
676.018,7.639
676.282,7.349
676.545,7.064
676.809,6.757
677.072,6.436
677.336,6.133
677.599,5.901
677.863,5.677
678.126,5.491
678.389,5.355
678.653,5.238
678.916,5.075
679.179,4.816
679.442,4.583
679.706,4.431
679.969,4.315
680.232,4.217
680.495,4.142
680.758,4.086
681.021,3.978
681.284,3.810
681.547,3.644
681.810,3.569
682.073,3.574
682.336,3.574
682.599,3.507
682.862,3.406
683.125,3.338
683.388,3.318
683.651,3.284
683.913,3.230
684.176,3.109
684.439,2.976
684.702,2.836
684.964,2.762
685.227,2.740
685.490,2.780
685.752,2.860
686.015,2.888
686.277,2.850
686.540,2.763
686.802,2.667
687.065,2.637
687.327,2.640
687.590,2.657
687.852,2.612
688.115,2.520
688.377,2.460
688.639,2.442
688.902,2.451
689.164,2.481
689.426,2.545
689.689,2.606
689.951,2.610
690.213,2.582
690.475,2.556
690.737,2.535
691.000,2.496
691.262,2.466
691.524,2.479
691.786,2.535
692.048,2.594
692.310,2.588
692.572,2.492
692.834,2.372
693.096,2.316
693.358,2.365
693.620,2.460
693.882,2.545
694.144,2.564
694.406,2.514
694.668,2.455
694.930,2.407
695.192,2.386
695.453,2.392
695.715,2.406
695.977,2.402
696.239,2.360
696.501,2.335
696.762,2.359
697.024,2.383
697.286,2.352
697.548,2.311
697.809,2.283
698.071,2.279
698.333,2.277
698.594,2.279
698.856,2.316
699.118,2.346
699.379,2.373
699.641,2.406
699.902,2.448
700.164,2.452
700.426,2.420
700.687,2.357
700.949,2.340
701.210,2.330
701.472,2.315
701.733,2.276
701.995,2.272
702.256,2.283
702.518,2.299
702.779,2.282
703.041,2.330
703.302,2.407
703.563,2.434
703.825,2.386
704.086,2.324
704.348,2.313
704.609,2.338
704.871,2.400
705.132,2.471
705.393,2.459
705.655,2.416
705.916,2.390
706.177,2.409
706.439,2.435
706.700,2.448
706.961,2.453
707.223,2.466
707.484,2.406
707.745,2.352
708.007,2.298
708.268,2.270
708.529,2.247
708.790,2.190
709.052,2.168
709.313,2.197
709.574,2.260
709.835,2.317
710.097,2.313
710.358,2.243
710.619,2.169
710.881,2.101
711.142,2.081
711.403,2.052
711.664,2.061
711.926,2.031
712.187,2.056
712.448,2.089
712.709,2.164
712.970,2.224
713.232,2.264
713.493,2.284
713.754,2.284
714.015,2.291
714.277,2.334
714.538,2.389
714.799,2.474
715.060,2.507
715.322,2.506
715.583,2.443
715.844,2.381
716.105,2.317
716.367,2.273
716.628,2.262
716.889,2.270
717.150,2.253
717.411,2.213
717.673,2.214
717.934,2.251
718.195,2.298
718.457,2.282
718.718,2.216
718.979,2.173
719.240,2.184
719.502,2.247
719.763,2.302
720.024,2.329
720.286,2.339
720.547,2.303
720.808,2.263
721.069,2.234
721.331,2.261
721.592,2.328
721.853,2.366
722.115,2.376
722.376,2.373
722.638,2.356
722.899,2.353
723.160,2.311
723.422,2.279
723.683,2.244
723.944,2.266
724.206,2.283
724.467,2.291
724.729,2.269
724.990,2.293
725.252,2.331
725.513,2.313
725.775,2.235
726.036,2.165
726.298,2.153
726.559,2.197
726.821,2.214
727.082,2.231
727.344,2.212
727.605,2.218
727.867,2.194
728.128,2.213
728.390,2.220
728.652,2.274
728.913,2.348
729.175,2.402
729.436,2.405
729.698,2.399
729.960,2.372
730.221,2.347
730.483,2.262
730.745,2.226
731.007,2.218
731.268,2.227
731.530,2.241
731.792,2.251
732.054,2.284
732.315,2.310
732.577,2.338
732.839,2.313
733.101,2.266
733.363,2.225
733.625,2.215
733.887,2.236
734.149,2.248
734.411,2.284
734.673,2.306
734.935,2.322
735.197,2.297
735.459,2.308
735.721,2.320
735.983,2.318
736.245,2.245
736.507,2.218
736.769,2.247
737.031,2.305
737.293,2.294
737.555,2.232
737.818,2.182
738.080,2.145
738.342,2.152
738.604,2.152
738.867,2.170
739.129,2.167
739.391,2.161
739.654,2.156
739.916,2.167
740.178,2.201
740.441,2.262
740.703,2.296
740.966,2.280
741.228,2.246
741.491,2.215
741.753,2.231
742.016,2.230
742.278,2.232
742.541,2.236
742.804,2.255
743.066,2.301
743.329,2.324
743.592,2.307
743.854,2.293
744.117,2.303
744.380,2.337
744.643,2.327
744.905,2.282
745.168,2.257
745.431,2.238
745.694,2.219
745.957,2.187
746.220,2.167
746.483,2.155
746.746,2.157
747.009,2.207
747.272,2.317
