Wavelength (nm),Intensity Source #69,,C:/Users/Brend/Desktop/MÃ s LED Spectras/Spectrometer Data.sp,,,Source #69,
379.792,2.212,,2018-06-13 15:07:17,,Integration Time,944 ms,
380.000,2.169,,Analyze Light,,Number of Scans to Average,25,
380.209,2.119,,,,Smoothing,1,
380.418,2.161
380.627,2.227
380.837,2.294
381.048,2.305
381.259,2.287
381.471,2.255
381.683,2.253
381.896,2.279
382.110,2.280
382.324,2.304
382.538,2.364
382.753,2.411
382.969,2.349
383.185,2.241
383.402,2.156
383.619,2.167
383.837,2.218
384.055,2.311
384.274,2.390
384.493,2.409
384.712,2.382
384.932,2.354
385.153,2.349
385.374,2.347
385.596,2.345
385.818,2.391
386.040,2.456
386.263,2.504
386.487,2.476
386.710,2.415
386.935,2.324
387.159,2.266
387.385,2.213
387.610,2.186
387.836,2.178
388.063,2.194
388.289,2.218
388.517,2.222
388.744,2.202
388.972,2.227
389.201,2.243
389.430,2.256
389.659,2.237
389.889,2.243
390.119,2.262
390.349,2.270
390.580,2.283
390.811,2.279
391.042,2.274
391.274,2.270
391.507,2.274
391.739,2.247
391.972,2.197
392.205,2.184
392.439,2.218
392.673,2.255
392.907,2.279
393.142,2.302
393.377,2.331
393.612,2.354
393.848,2.342
394.084,2.324
394.320,2.286
394.557,2.289
394.794,2.291
395.031,2.330
395.269,2.353
395.507,2.374
395.745,2.356
395.983,2.333
396.222,2.337
396.461,2.389
396.700,2.473
396.940,2.509
397.180,2.493
397.420,2.420
397.660,2.357
397.901,2.299
398.142,2.290
398.383,2.254
398.625,2.220
398.866,2.222
399.108,2.318
399.351,2.472
399.593,2.500
399.836,2.446
400.079,2.333
400.322,2.264
400.566,2.204
400.809,2.162
401.053,2.163
401.298,2.178
401.542,2.226
401.787,2.273
402.031,2.325
402.277,2.341
402.522,2.332
402.767,2.325
403.013,2.292
403.259,2.272
403.505,2.249
403.752,2.237
403.998,2.227
404.245,2.284
404.492,2.377
404.739,2.445
404.986,2.463
405.234,2.459
405.482,2.450
405.730,2.404
405.978,2.379
406.226,2.321
406.475,2.247
406.723,2.182
406.972,2.191
407.221,2.237
407.470,2.261
407.720,2.265
407.969,2.217
408.219,2.215
408.469,2.238
408.719,2.291
408.969,2.296
409.219,2.301
409.470,2.314
409.720,2.340
409.971,2.355
410.222,2.387
410.473,2.385
410.724,2.356
410.976,2.353
411.227,2.380
411.479,2.391
411.731,2.361
411.983,2.307
412.235,2.270
412.487,2.240
412.740,2.249
412.992,2.269
413.245,2.286
413.497,2.273
413.750,2.256
414.003,2.220
414.257,2.164
414.510,2.133
414.763,2.161
415.017,2.206
415.270,2.225
415.524,2.215
415.778,2.210
416.032,2.218
416.286,2.262
416.540,2.304
416.794,2.342
417.049,2.335
417.303,2.331
417.558,2.352
417.812,2.370
418.067,2.376
418.322,2.355
418.577,2.338
418.832,2.310
419.088,2.256
419.343,2.235
419.598,2.204
419.854,2.225
420.109,2.254
420.365,2.334
420.621,2.382
420.876,2.425
421.132,2.423
421.388,2.384
421.645,2.327
421.901,2.303
422.157,2.310
422.413,2.311
422.670,2.287
422.926,2.260
423.183,2.201
423.439,2.198
423.696,2.240
423.953,2.385
424.210,2.494
424.467,2.502
424.724,2.435
424.981,2.331
425.238,2.299
425.495,2.319
425.753,2.357
426.010,2.369
426.267,2.341
426.525,2.350
426.782,2.369
427.040,2.390
427.298,2.418
427.555,2.445
427.813,2.453
428.071,2.436
428.329,2.424
428.587,2.405
428.845,2.406
429.103,2.391
429.361,2.378
429.619,2.333
429.878,2.309
430.136,2.315
430.394,2.320
430.653,2.381
430.911,2.488
431.170,2.607
431.428,2.625
431.687,2.569
431.946,2.487
432.204,2.439
432.463,2.444
432.722,2.430
432.981,2.406
433.240,2.384
433.499,2.411
433.758,2.475
434.017,2.475
434.276,2.417
434.535,2.297
434.794,2.200
435.053,2.174
435.312,2.188
435.572,2.198
435.831,2.192
436.090,2.224
436.350,2.271
436.609,2.315
436.869,2.301
437.128,2.272
437.388,2.214
437.647,2.197
437.907,2.219
438.166,2.250
438.426,2.226
438.686,2.190
438.946,2.160
439.205,2.186
439.465,2.218
439.725,2.294
439.985,2.349
440.245,2.351
440.505,2.325
440.765,2.295
441.025,2.268
441.285,2.279
441.545,2.313
441.805,2.360
442.065,2.312
442.325,2.223
442.585,2.172
442.846,2.169
443.106,2.227
443.366,2.286
443.626,2.330
443.887,2.338
444.147,2.294
444.407,2.270
444.668,2.237
444.928,2.230
445.189,2.231
445.449,2.250
445.710,2.256
445.970,2.256
446.231,2.249
446.491,2.285
446.752,2.282
447.012,2.291
447.273,2.333
447.534,2.395
447.794,2.374
448.055,2.276
448.316,2.214
448.577,2.228
448.837,2.270
449.098,2.325
449.359,2.371
449.620,2.377
449.881,2.327
450.142,2.261
450.403,2.252
450.664,2.279
450.924,2.294
451.185,2.286
451.446,2.289
451.707,2.310
451.969,2.361
452.230,2.382
452.491,2.427
452.752,2.421
453.013,2.397
453.274,2.370
453.535,2.364
453.796,2.330
454.058,2.256
454.319,2.216
454.580,2.251
454.841,2.332
455.103,2.342
455.364,2.287
455.625,2.229
455.887,2.214
456.148,2.243
456.409,2.293
456.671,2.352
456.932,2.385
457.194,2.370
457.455,2.349
457.716,2.340
457.978,2.372
458.239,2.388
458.501,2.392
458.763,2.341
459.024,2.296
459.286,2.276
459.547,2.295
459.809,2.286
460.071,2.301
460.332,2.346
460.594,2.401
460.856,2.408
461.117,2.348
461.379,2.342
461.641,2.358
461.903,2.388
462.164,2.386
462.426,2.382
462.688,2.384
462.950,2.366
463.212,2.370
463.474,2.334
463.736,2.310
463.998,2.321
464.260,2.408
464.522,2.522
464.784,2.538
465.046,2.449
465.308,2.356
465.570,2.324
465.832,2.363
466.094,2.403
466.356,2.454
466.618,2.501
466.880,2.483
467.142,2.397
467.405,2.325
467.667,2.349
467.929,2.427
468.191,2.511
468.454,2.546
468.716,2.587
468.978,2.598
469.241,2.539
469.503,2.476
469.765,2.427
470.028,2.448
470.290,2.401
470.552,2.316
470.815,2.240
471.077,2.226
471.340,2.265
471.602,2.287
471.865,2.257
472.128,2.184
472.390,2.137
472.653,2.122
472.915,2.136
473.178,2.151
473.441,2.198
473.703,2.257
473.966,2.340
474.229,2.399
474.492,2.423
474.755,2.360
475.017,2.324
475.280,2.308
475.543,2.357
475.806,2.334
476.069,2.281
476.332,2.228
476.595,2.235
476.858,2.252
477.121,2.227
477.384,2.182
477.647,2.182
477.910,2.218
478.173,2.248
478.436,2.230
478.699,2.213
478.962,2.195
479.226,2.236
479.489,2.270
479.752,2.330
480.015,2.381
480.279,2.451
480.542,2.499
480.805,2.493
481.069,2.439
481.332,2.384
481.595,2.356
481.859,2.402
482.122,2.441
482.386,2.436
482.649,2.385
482.913,2.330
483.177,2.278
483.440,2.188
483.704,2.119
483.967,2.130
484.231,2.202
484.495,2.296
484.759,2.360
485.022,2.368
485.286,2.356
485.550,2.329
485.814,2.261
486.078,2.179
486.342,2.135
486.606,2.193
486.869,2.258
487.133,2.305
487.397,2.353
487.662,2.390
487.926,2.389
488.190,2.370
488.454,2.365
488.718,2.384
488.982,2.363
489.246,2.358
489.511,2.339
489.775,2.333
490.039,2.340
490.304,2.334
490.568,2.304
490.832,2.272
491.097,2.293
491.361,2.337
491.626,2.371
491.890,2.373
492.155,2.382
492.419,2.400
492.684,2.388
492.949,2.379
493.213,2.398
493.478,2.469
493.743,2.484
494.008,2.391
494.272,2.285
494.537,2.260
494.802,2.309
495.067,2.384
495.332,2.444
495.597,2.494
495.862,2.499
496.127,2.492
496.392,2.454
496.657,2.385
496.922,2.327
497.187,2.310
497.452,2.340
497.718,2.410
497.983,2.449
498.248,2.457
498.513,2.403
498.779,2.424
499.044,2.484
499.310,2.502
499.575,2.448
499.841,2.397
500.106,2.395
500.372,2.365
500.637,2.363
500.903,2.426
501.168,2.501
501.434,2.499
501.700,2.405
501.966,2.346
502.231,2.309
502.497,2.299
502.763,2.256
503.029,2.214
503.295,2.206
503.561,2.214
503.827,2.264
504.093,2.300
504.359,2.326
504.625,2.333
504.891,2.306
505.157,2.309
505.423,2.263
505.690,2.206
505.956,2.148
506.222,2.170
506.489,2.286
506.755,2.420
507.021,2.502
507.288,2.536
507.554,2.506
507.821,2.483
508.087,2.454
508.354,2.510
508.621,2.546
508.887,2.534
509.154,2.486
509.421,2.457
509.687,2.418
509.954,2.375
510.221,2.335
510.488,2.380
510.755,2.439
511.022,2.510
511.289,2.480
511.556,2.438
511.823,2.400
512.090,2.472
512.357,2.504
512.624,2.522
512.891,2.486
513.159,2.460
513.426,2.437
513.693,2.446
513.960,2.478
514.228,2.478
514.495,2.457
514.763,2.429
515.030,2.413
515.298,2.368
515.565,2.352
515.833,2.354
516.100,2.365
516.368,2.363
516.636,2.355
516.904,2.385
517.171,2.377
517.439,2.382
517.707,2.348
517.975,2.346
518.243,2.365
518.511,2.388
518.779,2.334
519.047,2.310
519.315,2.304
519.583,2.316
519.851,2.253
520.119,2.204
520.387,2.194
520.656,2.212
520.924,2.242
521.192,2.283
521.461,2.324
521.729,2.361
521.997,2.392
522.266,2.404
522.534,2.398
522.803,2.403
523.071,2.392
523.340,2.337
523.609,2.266
523.877,2.226
524.146,2.231
524.415,2.261
524.684,2.299
524.952,2.295
525.221,2.274
525.490,2.297
525.759,2.354
526.028,2.390
526.297,2.330
526.566,2.268
526.835,2.226
527.104,2.240
527.373,2.274
527.642,2.291
527.912,2.260
528.181,2.216
528.450,2.212
528.719,2.258
528.989,2.349
529.258,2.430
529.528,2.456
529.797,2.409
530.067,2.381
530.336,2.354
530.606,2.338
530.875,2.279
531.145,2.254
531.414,2.261
531.684,2.317
531.954,2.334
532.224,2.313
532.493,2.214
532.763,2.154
533.033,2.152
533.303,2.209
533.573,2.273
533.843,2.254
534.113,2.230
534.383,2.176
534.653,2.183
534.923,2.207
535.193,2.246
535.463,2.305
535.733,2.352
536.004,2.394
536.274,2.411
536.544,2.379
536.814,2.322
537.085,2.255
537.355,2.266
537.626,2.338
537.896,2.403
538.166,2.415
538.437,2.386
538.707,2.349
538.978,2.338
539.249,2.376
539.519,2.403
539.790,2.362
540.061,2.313
540.331,2.328
540.602,2.418
540.873,2.487
541.144,2.515
541.414,2.497
541.685,2.481
541.956,2.461
542.227,2.451
542.498,2.411
542.769,2.383
543.040,2.399
543.311,2.476
543.582,2.566
543.853,2.611
544.124,2.625
544.396,2.637
544.667,2.642
544.938,2.634
545.209,2.500
545.480,2.412
545.752,2.356
546.023,2.425
546.294,2.425
546.566,2.389
546.837,2.323
547.109,2.302
547.380,2.295
547.652,2.288
547.923,2.282
548.195,2.328
548.466,2.418
548.738,2.525
549.009,2.538
549.281,2.493
549.553,2.399
549.824,2.290
550.096,2.220
550.368,2.200
550.640,2.233
550.911,2.284
551.183,2.375
551.455,2.512
551.727,2.612
551.999,2.598
552.271,2.495
552.543,2.401
552.815,2.352
553.087,2.389
553.359,2.445
553.631,2.483
553.903,2.479
554.175,2.491
554.447,2.535
554.719,2.556
554.991,2.547
555.263,2.522
555.535,2.489
555.808,2.450
556.080,2.403
556.352,2.379
556.624,2.373
556.897,2.359
557.169,2.346
557.441,2.328
557.714,2.304
557.986,2.307
558.258,2.289
558.531,2.332
558.803,2.361
559.076,2.399
559.348,2.374
559.621,2.330
559.893,2.330
560.166,2.348
560.438,2.361
560.711,2.328
560.983,2.303
561.256,2.301
561.528,2.336
561.801,2.388
562.074,2.457
562.346,2.521
562.619,2.575
562.892,2.567
563.164,2.529
563.437,2.510
563.710,2.507
563.983,2.464
564.255,2.394
564.528,2.400
564.801,2.481
565.074,2.546
565.346,2.518
565.619,2.481
565.892,2.505
566.165,2.511
566.438,2.449
566.711,2.360
566.984,2.333
567.257,2.346
567.529,2.391
567.802,2.472
568.075,2.565
568.348,2.578
568.621,2.559
568.894,2.507
569.167,2.486
569.440,2.445
569.713,2.373
569.986,2.338
570.259,2.309
570.532,2.353
570.805,2.396
571.078,2.433
571.351,2.458
571.625,2.477
571.898,2.457
572.171,2.395
572.444,2.337
572.717,2.365
572.990,2.455
573.263,2.471
573.536,2.424
573.809,2.324
574.083,2.291
574.356,2.319
574.629,2.433
574.902,2.506
575.175,2.524
575.448,2.450
575.721,2.403
575.995,2.386
576.268,2.394
576.541,2.434
576.814,2.484
577.087,2.538
577.361,2.557
577.634,2.549
577.907,2.487
578.180,2.408
578.453,2.362
578.727,2.387
579.000,2.428
579.273,2.475
579.546,2.540
579.820,2.625
580.093,2.649
580.366,2.613
580.639,2.537
580.913,2.515
581.186,2.513
581.459,2.534
581.732,2.490
582.005,2.463
582.279,2.430
582.552,2.451
582.825,2.477
583.098,2.509
583.372,2.548
583.645,2.580
583.918,2.623
584.191,2.639
584.464,2.635
584.738,2.617
585.011,2.612
585.284,2.609
585.557,2.604
585.831,2.620
586.104,2.692
586.377,2.812
586.650,2.890
586.923,2.893
587.196,2.846
587.470,2.758
587.743,2.702
588.016,2.662
588.289,2.686
588.562,2.747
588.835,2.774
589.109,2.751
589.382,2.695
589.655,2.651
589.928,2.636
590.201,2.624
590.474,2.680
590.747,2.756
591.020,2.844
591.293,2.881
591.567,2.890
591.840,2.856
592.113,2.819
592.386,2.749
592.659,2.691
592.932,2.666
593.205,2.708
593.478,2.750
593.751,2.742
594.024,2.720
594.297,2.692
594.570,2.691
594.843,2.738
595.116,2.805
595.389,2.856
595.662,2.843
595.934,2.854
596.207,2.900
596.480,2.971
596.753,3.034
597.026,3.047
597.299,3.047
597.572,3.029
597.844,3.011
598.117,2.953
598.390,2.905
598.663,2.880
598.936,2.910
599.208,2.956
599.481,2.997
599.754,3.033
600.026,2.990
600.299,2.947
600.572,2.908
600.844,2.911
601.117,2.889
601.390,2.876
601.662,2.886
601.935,2.900
602.207,2.920
602.480,2.975
602.752,3.032
603.025,3.038
603.297,3.039
603.570,3.108
603.842,3.259
604.115,3.362
604.387,3.432
604.660,3.419
604.932,3.425
605.204,3.467
605.477,3.561
605.749,3.698
606.021,3.812
606.294,3.909
606.566,3.924
606.838,3.986
607.110,4.100
607.383,4.299
607.655,4.486
607.927,4.683
608.199,4.872
608.471,5.026
608.743,5.087
609.015,5.097
609.287,5.110
609.559,5.155
609.831,5.235
610.103,5.288
610.375,5.297
610.647,5.230
610.919,5.115
611.191,5.005
611.463,4.920
611.735,4.842
612.007,4.722
612.278,4.621
612.550,4.570
612.822,4.597
613.094,4.657
613.365,4.659
613.637,4.697
613.909,4.703
614.180,4.746
614.452,4.725
614.723,4.676
614.995,4.619
615.266,4.609
615.538,4.692
615.809,4.808
616.081,4.862
616.352,4.853
616.623,4.835
616.895,4.861
617.166,4.890
617.437,4.927
617.709,4.986
617.980,5.085
618.251,5.199
618.522,5.316
618.793,5.453
619.065,5.635
619.336,5.712
619.607,5.715
619.878,5.723
620.149,5.852
620.420,5.973
620.691,6.023
620.962,6.066
621.232,6.189
621.503,6.274
621.774,6.348
622.045,6.394
622.316,6.542
622.586,6.716
622.857,6.928
623.128,7.067
623.398,7.173
623.669,7.235
623.940,7.299
624.210,7.342
624.481,7.470
624.751,7.610
625.021,7.754
625.292,7.831
625.562,7.964
625.833,8.098
626.103,8.241
626.373,8.343
626.643,8.504
626.914,8.692
627.184,8.923
627.454,9.133
627.724,9.315
627.994,9.482
628.264,9.651
628.534,9.792
628.804,9.919
629.074,10.080
629.344,10.265
629.614,10.437
629.884,10.556
630.154,10.665
630.424,10.780
630.693,10.897
630.963,11.007
631.233,11.119
631.502,11.301
631.772,11.576
632.041,11.880
632.311,12.135
632.581,12.353
632.850,12.560
633.119,12.710
633.389,12.851
633.658,13.027
633.928,13.323
634.197,13.695
634.466,14.092
634.735,14.475
635.004,14.757
635.274,15.017
635.543,15.268
635.812,15.575
636.081,15.900
636.350,16.235
636.619,16.568
636.888,16.895
637.157,17.228
637.426,17.595
637.694,17.964
637.963,18.309
638.232,18.673
638.501,19.062
638.769,19.521
639.038,20.008
639.307,20.530
639.575,21.055
639.844,21.528
640.112,22.001
640.381,22.464
640.649,22.996
640.917,23.582
641.186,24.184
641.454,24.839
641.722,25.466
641.991,26.136
642.259,26.729
642.527,27.344
642.795,27.999
643.063,28.669
643.331,29.391
643.599,30.124
643.867,30.986
644.135,31.833
644.403,32.745
644.671,33.596
644.939,34.488
645.206,35.344
645.474,36.228
645.742,37.114
646.009,37.990
646.277,38.966
646.545,40.005
646.812,41.166
647.080,42.319
647.347,43.445
647.615,44.506
647.882,45.474
648.149,46.416
648.417,47.331
648.684,48.294
648.951,49.321
649.219,50.355
649.486,51.348
649.753,52.255
650.020,53.099
650.287,53.891
650.554,54.634
650.821,55.357
651.088,56.066
651.355,56.852
651.622,57.641
651.889,58.500
652.155,59.362
652.422,60.323
652.689,61.371
652.956,62.461
653.222,63.606
653.489,64.836
653.755,66.086
654.022,67.284
654.288,68.451
654.555,69.719
654.821,71.116
655.088,72.574
655.354,74.021
655.620,75.463
655.887,76.823
656.153,78.113
656.419,79.288
656.685,80.366
656.951,81.321
657.217,82.148
657.483,82.839
657.749,83.382
658.015,83.754
658.281,83.918
658.547,83.810
658.813,83.424
659.079,82.751
659.345,81.815
659.610,80.655
659.876,79.279
660.142,77.714
660.407,75.952
660.673,74.005
660.939,71.885
661.204,69.555
661.470,67.087
661.735,64.522
662.000,61.928
662.266,59.276
662.531,56.564
662.796,53.837
663.062,51.145
663.327,48.524
663.592,46.036
663.857,43.693
664.122,41.491
664.388,39.392
664.653,37.420
664.918,35.615
665.183,33.948
665.448,32.448
665.712,31.073
665.977,29.820
666.242,28.619
666.507,27.393
666.772,26.259
667.037,25.221
667.301,24.358
667.566,23.536
667.831,22.793
668.095,22.070
668.360,21.400
668.624,20.676
668.889,20.054
669.153,19.442
669.418,18.893
669.682,18.333
669.946,17.804
670.211,17.343
670.475,16.861
670.739,16.392
671.004,15.909
671.268,15.482
671.532,15.100
671.796,14.523
672.060,13.904
672.324,13.235
672.588,12.757
672.852,12.320
673.116,12.029
673.380,11.799
673.644,11.310
673.908,10.685
674.172,10.037
674.436,9.677
674.700,9.361
674.963,9.052
675.227,8.733
675.491,8.357
675.754,7.983
676.018,7.624
676.282,7.364
676.545,7.107
676.809,6.816
677.072,6.497
677.336,6.197
677.599,5.972
677.863,5.755
678.126,5.577
678.389,5.446
678.653,5.336
678.916,5.178
679.179,4.926
679.442,4.696
679.706,4.548
679.969,4.435
680.232,4.344
680.495,4.275
680.758,4.227
681.021,4.116
681.284,3.938
681.547,3.759
681.810,3.683
682.073,3.689
682.336,3.688
682.599,3.610
682.862,3.499
683.125,3.433
683.388,3.418
683.651,3.386
683.913,3.328
684.176,3.196
684.439,3.059
684.702,2.913
684.964,2.839
685.227,2.820
685.490,2.861
685.752,2.945
686.015,2.965
686.277,2.924
686.540,2.832
686.802,2.741
687.065,2.710
687.327,2.705
687.590,2.715
687.852,2.669
688.115,2.584
688.377,2.530
688.639,2.517
688.902,2.529
689.164,2.556
689.426,2.616
689.689,2.675
689.951,2.672
690.213,2.640
690.475,2.613
690.737,2.595
691.000,2.552
691.262,2.521
691.524,2.536
691.786,2.594
692.048,2.649
692.310,2.634
692.572,2.533
692.834,2.415
693.096,2.365
693.358,2.425
693.620,2.524
693.882,2.612
694.144,2.626
694.406,2.574
694.668,2.516
694.930,2.461
695.192,2.429
695.453,2.427
695.715,2.443
695.977,2.442
696.239,2.392
696.501,2.363
696.762,2.390
697.024,2.424
697.286,2.397
697.548,2.356
697.809,2.331
698.071,2.326
698.333,2.324
698.594,2.322
698.856,2.364
699.118,2.398
699.379,2.430
699.641,2.465
699.902,2.510
700.164,2.518
700.426,2.486
700.687,2.415
700.949,2.391
701.210,2.378
701.472,2.365
701.733,2.328
701.995,2.327
702.256,2.344
702.518,2.362
702.779,2.346
703.041,2.394
703.302,2.475
703.563,2.499
703.825,2.447
704.086,2.379
704.348,2.366
704.609,2.392
704.871,2.458
705.132,2.531
705.393,2.514
705.655,2.470
705.916,2.445
706.177,2.472
706.439,2.504
706.700,2.522
706.961,2.538
707.223,2.557
707.484,2.492
707.745,2.429
708.007,2.371
708.268,2.344
708.529,2.316
708.790,2.242
709.052,2.211
709.313,2.235
709.574,2.302
709.835,2.360
710.097,2.358
710.358,2.286
710.619,2.212
710.881,2.146
711.142,2.134
711.403,2.112
711.664,2.123
711.926,2.090
712.187,2.111
712.448,2.143
712.709,2.222
712.970,2.280
713.232,2.318
713.493,2.341
713.754,2.349
714.015,2.355
714.277,2.393
714.538,2.443
714.799,2.531
715.060,2.568
715.322,2.573
715.583,2.512
715.844,2.452
716.105,2.384
716.367,2.334
716.628,2.317
716.889,2.322
717.150,2.308
717.411,2.266
717.673,2.270
717.934,2.309
718.195,2.363
718.457,2.351
718.718,2.285
718.979,2.240
719.240,2.243
719.502,2.299
719.763,2.351
720.024,2.381
720.286,2.390
720.547,2.351
720.808,2.307
721.069,2.277
721.331,2.300
721.592,2.371
721.853,2.412
722.115,2.432
722.376,2.436
722.638,2.424
722.899,2.419
723.160,2.372
723.422,2.334
723.683,2.301
723.944,2.325
724.206,2.343
724.467,2.346
724.729,2.325
724.990,2.350
725.252,2.397
725.513,2.379
725.775,2.297
726.036,2.224
726.298,2.212
726.559,2.261
726.821,2.278
727.082,2.292
727.344,2.271
727.605,2.275
727.867,2.249
728.128,2.268
728.390,2.277
728.652,2.334
728.913,2.409
729.175,2.463
729.436,2.466
729.698,2.461
729.960,2.433
730.221,2.404
730.483,2.313
730.745,2.279
731.007,2.275
731.268,2.288
731.530,2.301
731.792,2.305
732.054,2.336
732.315,2.365
732.577,2.397
732.839,2.371
733.101,2.319
733.363,2.277
733.625,2.266
733.887,2.286
734.149,2.293
734.411,2.327
734.673,2.349
734.935,2.369
735.197,2.349
735.459,2.367
735.721,2.382
735.983,2.378
736.245,2.301
736.507,2.278
736.769,2.312
737.031,2.372
737.293,2.359
737.555,2.293
737.818,2.242
738.080,2.204
738.342,2.207
738.604,2.203
738.867,2.219
739.129,2.217
739.391,2.214
739.654,2.215
739.916,2.233
740.178,2.276
740.441,2.342
740.703,2.377
740.966,2.355
741.228,2.314
741.491,2.279
741.753,2.294
742.016,2.295
742.278,2.300
742.541,2.299
742.804,2.314
743.066,2.358
743.329,2.386
743.592,2.371
743.854,2.360
744.117,2.376
744.380,2.413
744.643,2.399
744.905,2.344
745.168,2.313
745.431,2.295
745.694,2.277
745.957,2.253
746.220,2.233
746.483,2.222
746.746,2.221
747.009,2.269
747.272,2.385
