Wavelength (nm),Intensity Source #56,,C:/Users/Brend/Desktop/MÃ s LED Spectras/Spectrometer Data.sp,,,Source #56,
379.792,2.232,,2018-06-13 14:48:33,,Integration Time,950 ms,
380.000,2.184,,Analyze Light,,Number of Scans to Average,25,
380.209,2.122,,,,Smoothing,1,
380.418,2.163
380.627,2.236
380.837,2.314
381.048,2.329
381.259,2.309
381.471,2.276
381.683,2.275
381.896,2.300
382.110,2.300
382.324,2.325
382.538,2.384
382.753,2.430
382.969,2.359
383.185,2.243
383.402,2.156
383.619,2.171
383.837,2.234
384.055,2.328
384.274,2.407
384.493,2.424
384.712,2.399
384.932,2.371
385.153,2.362
385.374,2.352
385.596,2.347
385.818,2.392
386.040,2.462
386.263,2.514
386.487,2.496
386.710,2.441
386.935,2.351
387.159,2.293
387.385,2.240
387.610,2.215
387.836,2.202
388.063,2.209
388.289,2.228
388.517,2.240
388.744,2.224
388.972,2.248
389.201,2.262
389.430,2.276
389.659,2.263
389.889,2.272
390.119,2.297
390.349,2.306
390.580,2.323
390.811,2.323
391.042,2.325
391.274,2.325
391.507,2.328
391.739,2.290
391.972,2.228
392.205,2.207
392.439,2.239
392.673,2.267
392.907,2.281
393.142,2.301
393.377,2.324
393.612,2.343
393.848,2.325
394.084,2.306
394.320,2.276
394.557,2.289
394.794,2.300
395.031,2.338
395.269,2.357
395.507,2.376
395.745,2.359
395.983,2.338
396.222,2.348
396.461,2.403
396.700,2.484
396.940,2.518
397.180,2.508
397.420,2.445
397.660,2.380
397.901,2.309
398.142,2.293
398.383,2.253
398.625,2.222
398.866,2.228
399.108,2.332
399.351,2.488
399.593,2.510
399.836,2.447
400.079,2.329
400.322,2.266
400.566,2.210
400.809,2.173
401.053,2.179
401.298,2.199
401.542,2.251
401.787,2.298
402.031,2.346
402.277,2.357
402.522,2.343
402.767,2.338
403.013,2.308
403.259,2.286
403.505,2.257
403.752,2.237
403.998,2.229
404.245,2.295
404.492,2.395
404.739,2.465
404.986,2.485
405.234,2.491
405.482,2.483
405.730,2.437
405.978,2.411
406.226,2.361
406.475,2.283
406.723,2.207
406.972,2.207
407.221,2.245
407.470,2.270
407.720,2.274
407.969,2.236
408.219,2.243
408.469,2.270
408.719,2.321
408.969,2.317
409.219,2.313
409.470,2.323
409.720,2.347
409.971,2.361
410.222,2.385
410.473,2.380
410.724,2.359
410.976,2.370
411.227,2.408
411.479,2.420
411.731,2.385
411.983,2.325
412.235,2.285
412.487,2.257
412.740,2.270
412.992,2.289
413.245,2.300
413.497,2.282
413.750,2.270
414.003,2.241
414.257,2.194
414.510,2.167
414.763,2.191
415.017,2.236
415.270,2.253
415.524,2.244
415.778,2.232
416.032,2.234
416.286,2.271
416.540,2.316
416.794,2.354
417.049,2.350
417.303,2.347
417.558,2.369
417.812,2.392
418.067,2.403
418.322,2.385
418.577,2.367
418.832,2.338
419.088,2.289
419.343,2.270
419.598,2.240
419.854,2.251
420.109,2.278
420.365,2.363
420.621,2.418
420.876,2.454
421.132,2.439
421.388,2.395
421.645,2.339
421.901,2.324
422.157,2.338
422.413,2.346
422.670,2.320
422.926,2.286
423.183,2.217
423.439,2.205
423.696,2.247
423.953,2.397
424.210,2.514
424.467,2.519
424.724,2.437
424.981,2.317
425.238,2.285
425.495,2.313
425.753,2.359
426.010,2.380
426.267,2.355
426.525,2.365
426.782,2.376
427.040,2.397
427.298,2.430
427.555,2.460
427.813,2.468
428.071,2.451
428.329,2.449
428.587,2.431
428.845,2.433
429.103,2.412
429.361,2.400
429.619,2.351
429.878,2.323
430.136,2.317
430.394,2.317
430.653,2.378
430.911,2.489
431.170,2.616
431.428,2.644
431.687,2.603
431.946,2.532
432.204,2.483
432.463,2.479
432.722,2.457
432.981,2.427
433.240,2.399
433.499,2.418
433.758,2.480
434.017,2.483
434.276,2.433
434.535,2.321
434.794,2.222
435.053,2.188
435.312,2.198
435.572,2.218
435.831,2.224
436.090,2.264
436.350,2.309
436.609,2.348
436.869,2.327
437.128,2.297
437.388,2.236
437.647,2.221
437.907,2.240
438.166,2.274
438.426,2.249
438.686,2.213
438.946,2.176
439.205,2.190
439.465,2.209
439.725,2.279
439.985,2.338
440.245,2.351
440.505,2.336
440.765,2.319
441.025,2.293
441.285,2.305
441.545,2.342
441.805,2.397
442.065,2.355
442.325,2.259
442.585,2.192
442.846,2.176
443.106,2.230
443.366,2.290
443.626,2.329
443.887,2.335
444.147,2.291
444.407,2.271
444.668,2.239
444.928,2.230
445.189,2.236
445.449,2.263
445.710,2.281
445.970,2.287
446.231,2.286
446.491,2.320
446.752,2.316
447.012,2.323
447.273,2.363
447.534,2.422
447.794,2.400
448.055,2.304
448.316,2.243
448.577,2.252
448.837,2.289
449.098,2.343
449.359,2.390
449.620,2.393
449.881,2.346
450.142,2.279
450.403,2.275
450.664,2.302
450.924,2.323
451.185,2.317
451.446,2.319
451.707,2.329
451.969,2.374
452.230,2.400
452.491,2.453
452.752,2.446
453.013,2.405
453.274,2.363
453.535,2.348
453.796,2.323
454.058,2.264
454.319,2.236
454.580,2.275
454.841,2.354
455.103,2.363
455.364,2.308
455.625,2.249
455.887,2.234
456.148,2.255
456.409,2.301
456.671,2.355
456.932,2.386
457.194,2.366
457.455,2.342
457.716,2.333
457.978,2.367
458.239,2.385
458.501,2.403
458.763,2.362
459.024,2.327
459.286,2.306
459.547,2.321
459.809,2.310
460.071,2.324
460.332,2.370
460.594,2.426
460.856,2.438
461.117,2.384
461.379,2.374
461.641,2.384
461.903,2.415
462.164,2.422
462.426,2.418
462.688,2.408
462.950,2.381
463.212,2.388
463.474,2.357
463.736,2.325
463.998,2.323
464.260,2.407
464.522,2.526
464.784,2.552
465.046,2.468
465.308,2.377
465.570,2.350
465.832,2.390
466.094,2.435
466.356,2.483
466.618,2.530
466.880,2.515
467.142,2.439
467.405,2.369
467.667,2.393
467.929,2.461
468.191,2.544
468.454,2.576
468.716,2.625
468.978,2.636
469.241,2.576
469.503,2.507
469.765,2.456
470.028,2.470
470.290,2.423
470.552,2.342
470.815,2.270
471.077,2.257
471.340,2.291
471.602,2.308
471.865,2.270
472.128,2.191
472.390,2.142
472.653,2.133
472.915,2.148
473.178,2.158
473.441,2.199
473.703,2.264
473.966,2.357
474.229,2.427
474.492,2.451
474.755,2.389
475.017,2.357
475.280,2.343
475.543,2.385
475.806,2.346
476.069,2.289
476.332,2.233
476.595,2.248
476.858,2.270
477.121,2.252
477.384,2.207
477.647,2.206
477.910,2.241
478.173,2.271
478.436,2.249
478.699,2.228
478.962,2.209
479.226,2.245
479.489,2.278
479.752,2.333
480.015,2.392
480.279,2.475
480.542,2.534
480.805,2.529
481.069,2.472
481.332,2.409
481.595,2.376
481.859,2.414
482.122,2.454
482.386,2.451
482.649,2.405
482.913,2.348
483.177,2.294
483.440,2.195
483.704,2.119
483.967,2.131
484.231,2.217
484.495,2.324
484.759,2.393
485.022,2.397
485.286,2.382
485.550,2.358
485.814,2.293
486.078,2.210
486.342,2.160
486.606,2.214
486.869,2.276
487.133,2.325
487.397,2.376
487.662,2.418
487.926,2.419
488.190,2.399
488.454,2.384
488.718,2.393
488.982,2.366
489.246,2.363
489.511,2.351
489.775,2.361
490.039,2.374
490.304,2.367
490.568,2.331
490.832,2.295
491.097,2.320
491.361,2.358
491.626,2.388
491.890,2.378
492.155,2.385
492.419,2.393
492.684,2.381
492.949,2.377
493.213,2.404
493.478,2.484
493.743,2.500
494.008,2.411
494.272,2.309
494.537,2.286
494.802,2.329
495.067,2.399
495.332,2.454
495.597,2.510
495.862,2.511
496.127,2.500
496.392,2.460
496.657,2.392
496.922,2.338
497.187,2.323
497.452,2.369
497.718,2.453
497.983,2.498
498.248,2.495
498.513,2.433
498.779,2.447
499.044,2.504
499.310,2.513
499.575,2.456
499.841,2.404
500.106,2.400
500.372,2.362
500.637,2.348
500.903,2.414
501.168,2.494
501.434,2.498
501.700,2.411
501.966,2.359
502.231,2.331
502.497,2.323
502.763,2.286
503.029,2.241
503.295,2.228
503.561,2.224
503.827,2.267
504.093,2.301
504.359,2.332
504.625,2.343
504.891,2.317
505.157,2.319
505.423,2.274
505.690,2.222
505.956,2.167
506.222,2.192
506.489,2.308
506.755,2.442
507.021,2.527
507.288,2.568
507.554,2.541
507.821,2.514
508.087,2.483
508.354,2.534
508.621,2.570
508.887,2.553
509.154,2.506
509.421,2.472
509.687,2.423
509.954,2.371
510.221,2.329
510.488,2.381
510.755,2.449
511.022,2.525
511.289,2.496
511.556,2.450
511.823,2.411
512.090,2.488
512.357,2.525
512.624,2.555
512.891,2.522
513.159,2.495
513.426,2.460
513.693,2.458
513.960,2.488
514.228,2.487
514.495,2.466
514.763,2.438
515.030,2.423
515.298,2.381
515.565,2.373
515.833,2.385
516.100,2.400
516.368,2.401
516.636,2.392
516.904,2.423
517.171,2.411
517.439,2.411
517.707,2.365
517.975,2.354
518.243,2.373
518.511,2.401
518.779,2.351
519.047,2.331
519.315,2.327
519.583,2.338
519.851,2.275
520.119,2.226
520.387,2.222
520.656,2.241
520.924,2.270
521.192,2.308
521.461,2.348
521.729,2.393
521.997,2.427
522.266,2.437
522.534,2.423
522.803,2.423
523.071,2.409
523.340,2.348
523.609,2.270
523.877,2.229
524.146,2.239
524.415,2.275
524.684,2.317
524.952,2.317
525.221,2.300
525.490,2.321
525.759,2.373
526.028,2.405
526.297,2.343
526.566,2.285
526.835,2.244
527.104,2.255
527.373,2.283
527.642,2.302
527.912,2.282
528.181,2.243
528.450,2.237
528.719,2.279
528.989,2.374
529.258,2.460
529.528,2.485
529.797,2.430
530.067,2.392
530.336,2.358
530.606,2.343
530.875,2.289
531.145,2.266
531.414,2.268
531.684,2.316
531.954,2.335
532.224,2.319
532.493,2.228
532.763,2.167
533.033,2.169
533.303,2.230
533.573,2.297
533.843,2.274
534.113,2.248
534.383,2.191
534.653,2.198
534.923,2.225
535.193,2.264
535.463,2.320
535.733,2.361
536.004,2.396
536.274,2.407
536.544,2.365
536.814,2.301
537.085,2.234
537.355,2.241
537.626,2.321
537.896,2.389
538.166,2.418
538.437,2.395
538.707,2.363
538.978,2.354
539.249,2.390
539.519,2.419
539.790,2.378
540.061,2.329
540.331,2.340
540.602,2.422
540.873,2.479
541.144,2.503
541.414,2.489
541.685,2.487
541.956,2.470
542.227,2.461
542.498,2.422
542.769,2.395
543.040,2.405
543.311,2.472
543.582,2.553
543.853,2.595
544.124,2.618
544.396,2.637
544.667,2.648
544.938,2.631
545.209,2.492
545.480,2.400
545.752,2.351
546.023,2.424
546.294,2.431
546.566,2.397
546.837,2.331
547.109,2.305
547.380,2.294
547.652,2.286
547.923,2.278
548.195,2.321
548.466,2.407
548.738,2.514
549.009,2.533
549.281,2.492
549.553,2.399
549.824,2.289
550.096,2.220
550.368,2.202
550.640,2.237
550.911,2.290
551.183,2.380
551.455,2.511
551.727,2.606
551.999,2.589
552.271,2.484
552.543,2.392
552.815,2.350
553.087,2.393
553.359,2.454
553.631,2.487
553.903,2.479
554.175,2.484
554.447,2.533
554.719,2.564
554.991,2.567
555.263,2.541
555.535,2.504
555.808,2.462
556.080,2.414
556.352,2.382
556.624,2.365
556.897,2.346
557.169,2.339
557.441,2.335
557.714,2.321
557.986,2.321
558.258,2.297
558.531,2.339
558.803,2.380
559.076,2.426
559.348,2.401
559.621,2.348
559.893,2.338
560.166,2.348
560.438,2.358
560.711,2.327
560.983,2.305
561.256,2.306
561.528,2.340
561.801,2.386
562.074,2.453
562.346,2.519
562.619,2.580
562.892,2.580
563.164,2.542
563.437,2.518
563.710,2.507
563.983,2.461
564.255,2.386
564.528,2.382
564.801,2.458
565.074,2.527
565.346,2.508
565.619,2.475
565.892,2.494
566.165,2.496
566.438,2.434
566.711,2.346
566.984,2.321
567.257,2.333
567.529,2.380
567.802,2.461
568.075,2.559
568.348,2.567
568.621,2.548
568.894,2.500
569.167,2.491
569.440,2.454
569.713,2.381
569.986,2.348
570.259,2.323
570.532,2.369
570.805,2.405
571.078,2.430
571.351,2.450
571.625,2.469
571.898,2.450
572.171,2.381
572.444,2.313
572.717,2.333
572.990,2.418
573.263,2.428
573.536,2.384
573.809,2.287
574.083,2.263
574.356,2.295
574.629,2.412
574.902,2.491
575.175,2.507
575.448,2.431
575.721,2.380
575.995,2.361
576.268,2.371
576.541,2.422
576.814,2.483
577.087,2.544
577.361,2.559
577.634,2.545
577.907,2.479
578.180,2.392
578.453,2.344
578.727,2.362
579.000,2.401
579.273,2.443
579.546,2.513
579.820,2.602
580.093,2.631
580.366,2.589
580.639,2.502
580.913,2.477
581.186,2.476
581.459,2.495
581.732,2.447
582.005,2.422
582.279,2.392
582.552,2.412
582.825,2.433
583.098,2.469
583.372,2.514
583.645,2.552
583.918,2.591
584.191,2.602
584.464,2.598
584.738,2.587
585.011,2.580
585.284,2.567
585.557,2.546
585.831,2.563
586.104,2.643
586.377,2.777
586.650,2.864
586.923,2.869
587.196,2.814
587.470,2.723
587.743,2.666
588.016,2.624
588.289,2.636
588.562,2.685
588.835,2.707
589.109,2.688
589.382,2.632
589.655,2.583
589.928,2.560
590.201,2.544
590.474,2.599
590.747,2.675
591.020,2.762
591.293,2.791
591.567,2.793
591.840,2.757
592.113,2.720
592.386,2.658
592.659,2.606
592.932,2.586
593.205,2.622
593.478,2.658
593.751,2.656
594.024,2.640
594.297,2.610
594.570,2.599
594.843,2.644
595.116,2.724
595.389,2.789
595.662,2.776
595.934,2.769
596.207,2.797
596.480,2.854
596.753,2.911
597.026,2.918
597.299,2.917
597.572,2.899
597.844,2.882
598.117,2.829
598.390,2.784
598.663,2.758
598.936,2.781
599.208,2.827
599.481,2.873
599.754,2.913
600.026,2.869
600.299,2.825
600.572,2.787
600.844,2.783
601.117,2.745
601.390,2.726
601.662,2.732
601.935,2.747
602.207,2.759
602.480,2.803
602.752,2.852
603.025,2.850
603.297,2.848
603.570,2.909
603.842,3.051
604.115,3.152
604.387,3.221
604.660,3.206
604.932,3.200
605.204,3.234
605.477,3.322
605.749,3.455
606.021,3.559
606.294,3.640
606.566,3.635
606.838,3.675
607.110,3.767
607.383,3.941
607.655,4.103
607.927,4.269
608.199,4.431
608.471,4.577
608.743,4.632
609.015,4.634
609.287,4.633
609.559,4.682
609.831,4.761
610.103,4.807
610.375,4.797
610.647,4.705
610.919,4.571
611.191,4.444
611.463,4.368
611.735,4.294
612.007,4.181
612.278,4.080
612.550,4.020
612.822,4.037
613.094,4.081
613.365,4.073
613.637,4.092
613.909,4.080
614.180,4.112
614.452,4.093
614.723,4.054
614.995,3.999
615.266,3.976
615.538,4.039
615.809,4.126
616.081,4.154
616.352,4.122
616.623,4.085
616.895,4.092
617.166,4.097
617.437,4.104
617.709,4.141
617.980,4.225
618.251,4.341
618.522,4.450
618.793,4.581
619.065,4.739
619.336,4.792
619.607,4.754
619.878,4.720
620.149,4.805
620.420,4.899
620.691,4.938
620.962,4.972
621.232,5.069
621.503,5.113
621.774,5.140
622.045,5.150
622.316,5.256
622.586,5.389
622.857,5.546
623.128,5.634
623.398,5.691
623.669,5.717
623.940,5.739
624.210,5.745
624.481,5.839
624.751,5.948
625.021,6.051
625.292,6.070
625.562,6.157
625.833,6.254
626.103,6.356
626.373,6.405
626.643,6.494
626.914,6.618
627.184,6.786
627.454,6.937
627.724,7.061
627.994,7.179
628.264,7.311
628.534,7.421
628.804,7.511
629.074,7.656
629.344,7.836
629.614,8.019
629.884,8.129
630.154,8.224
630.424,8.318
630.693,8.410
630.963,8.482
631.233,8.543
631.502,8.688
631.772,8.928
632.041,9.198
632.311,9.399
632.581,9.556
632.850,9.697
633.119,9.775
633.389,9.843
633.658,9.948
633.928,10.168
634.197,10.433
634.466,10.719
634.735,10.999
635.004,11.203
635.274,11.385
635.543,11.552
635.812,11.758
636.081,11.969
636.350,12.211
636.619,12.481
636.888,12.750
637.157,13.005
637.426,13.274
637.694,13.549
637.963,13.789
638.232,14.044
638.501,14.309
638.769,14.630
639.038,14.965
639.307,15.336
639.575,15.698
639.844,15.972
640.112,16.216
640.381,16.452
640.649,16.759
640.917,17.121
641.186,17.485
641.454,17.903
641.722,18.308
641.991,18.775
642.259,19.185
642.527,19.617
642.795,20.084
643.063,20.535
643.331,21.013
643.599,21.513
643.867,22.152
644.135,22.793
644.403,23.462
644.671,24.046
644.939,24.664
645.206,25.253
645.474,25.864
645.742,26.439
646.009,26.977
646.277,27.603
646.545,28.277
646.812,29.045
647.080,29.799
647.347,30.544
647.615,31.245
647.882,31.890
648.149,32.548
648.417,33.234
648.684,34.025
648.951,34.895
649.219,35.843
649.486,36.766
649.753,37.657
650.020,38.497
650.287,39.365
650.554,40.243
650.821,41.134
651.088,42.020
651.355,42.972
651.622,43.899
651.889,44.824
652.155,45.652
652.422,46.490
652.689,47.353
652.956,48.239
653.222,49.110
653.489,49.989
653.755,50.807
654.022,51.505
654.288,52.036
654.555,52.557
654.821,53.158
655.088,53.860
655.354,54.600
655.620,55.402
655.887,56.233
656.153,57.099
656.419,57.977
656.685,58.909
656.951,59.942
657.217,61.058
657.483,62.228
657.749,63.409
658.015,64.670
658.281,65.964
658.547,67.209
658.813,68.372
659.079,69.524
659.345,70.689
659.610,71.868
659.876,73.024
660.142,74.193
660.407,75.352
660.673,76.486
660.939,77.580
661.204,78.584
661.470,79.476
661.735,80.213
662.000,80.806
662.266,81.179
662.531,81.294
662.796,81.156
663.062,80.781
663.327,80.182
663.592,79.427
663.857,78.487
664.122,77.348
664.388,75.914
664.653,74.264
664.918,72.458
665.183,70.486
665.448,68.403
665.712,66.207
665.977,63.942
666.242,61.537
666.507,58.958
666.772,56.361
667.037,53.795
667.301,51.361
667.566,48.909
667.831,46.539
668.095,44.241
668.360,42.110
668.624,40.024
668.889,38.121
669.153,36.330
669.418,34.733
669.682,33.253
669.946,31.918
670.211,30.727
670.475,29.594
670.739,28.528
671.004,27.519
671.268,26.610
671.532,25.827
671.796,24.907
672.060,24.001
672.324,23.076
672.588,22.362
672.852,21.703
673.116,21.182
673.380,20.727
673.644,20.020
673.908,19.170
674.172,18.300
674.436,17.722
674.700,17.205
674.963,16.694
675.227,16.157
675.491,15.551
675.754,14.948
676.018,14.371
676.282,13.885
676.545,13.389
676.809,12.848
677.072,12.302
677.336,11.802
677.599,11.391
677.863,10.961
678.126,10.554
678.389,10.201
678.653,9.890
678.916,9.533
679.179,9.088
679.442,8.679
679.706,8.353
679.969,8.052
680.232,7.768
680.495,7.517
680.758,7.304
681.021,7.048
681.284,6.721
681.547,6.375
681.810,6.110
682.073,5.949
682.336,5.807
682.599,5.614
682.862,5.398
683.125,5.227
683.388,5.101
683.651,4.961
683.913,4.807
684.176,4.583
684.439,4.348
684.702,4.094
684.964,3.922
685.227,3.818
685.490,3.799
685.752,3.829
686.015,3.793
686.277,3.696
686.540,3.552
686.802,3.412
687.065,3.322
687.327,3.270
687.590,3.240
687.852,3.172
688.115,3.063
688.377,2.979
688.639,2.932
688.902,2.909
689.164,2.909
689.426,2.952
689.689,3.004
689.951,2.986
690.213,2.929
690.475,2.871
690.737,2.835
691.000,2.784
691.262,2.743
691.524,2.740
691.786,2.788
692.048,2.838
692.310,2.815
692.572,2.700
692.834,2.572
693.096,2.523
693.358,2.582
693.620,2.674
693.882,2.755
694.144,2.766
694.406,2.713
694.668,2.654
694.930,2.599
695.192,2.560
695.453,2.549
695.715,2.552
695.977,2.542
696.239,2.494
696.501,2.470
696.762,2.500
697.024,2.530
697.286,2.495
697.548,2.450
697.809,2.420
698.071,2.412
698.333,2.403
698.594,2.395
698.856,2.433
699.118,2.469
699.379,2.500
699.641,2.529
699.902,2.565
700.164,2.570
700.426,2.536
700.687,2.461
700.949,2.431
701.210,2.414
701.472,2.399
701.733,2.361
701.995,2.358
702.256,2.369
702.518,2.386
702.779,2.376
703.041,2.437
703.302,2.526
703.563,2.549
703.825,2.494
704.086,2.422
704.348,2.408
704.609,2.433
704.871,2.496
705.132,2.579
705.393,2.572
705.655,2.532
705.916,2.498
706.177,2.511
706.439,2.534
706.700,2.548
706.961,2.560
707.223,2.579
707.484,2.519
707.745,2.469
708.007,2.415
708.268,2.386
708.529,2.357
708.790,2.289
709.052,2.263
709.313,2.286
709.574,2.347
709.835,2.401
710.097,2.399
710.358,2.333
710.619,2.260
710.881,2.191
711.142,2.171
711.403,2.142
711.664,2.146
711.926,2.107
712.187,2.120
712.448,2.148
712.709,2.221
712.970,2.287
713.232,2.336
713.493,2.370
713.754,2.377
714.015,2.382
714.277,2.420
714.538,2.468
714.799,2.552
715.060,2.586
715.322,2.595
715.583,2.538
715.844,2.479
716.105,2.409
716.367,2.361
716.628,2.348
716.889,2.352
717.150,2.336
717.411,2.291
717.673,2.291
717.934,2.328
718.195,2.382
718.457,2.369
718.718,2.302
718.979,2.248
719.240,2.252
719.502,2.313
719.763,2.371
720.024,2.401
720.286,2.409
720.547,2.374
720.808,2.335
721.069,2.302
721.331,2.329
721.592,2.407
721.853,2.451
722.115,2.468
722.376,2.462
722.638,2.449
722.899,2.441
723.160,2.395
723.422,2.352
723.683,2.314
723.944,2.338
724.206,2.361
724.467,2.367
724.729,2.340
724.990,2.366
725.252,2.412
725.513,2.400
725.775,2.314
726.036,2.236
726.298,2.222
726.559,2.275
726.821,2.302
727.082,2.324
727.344,2.304
727.605,2.305
727.867,2.271
728.128,2.290
728.390,2.294
728.652,2.352
728.913,2.424
729.175,2.484
729.436,2.494
729.698,2.499
729.960,2.469
730.221,2.435
730.483,2.336
730.745,2.295
731.007,2.283
731.268,2.289
731.530,2.301
731.792,2.317
732.054,2.363
732.315,2.403
732.577,2.442
732.839,2.418
733.101,2.363
733.363,2.309
733.625,2.290
733.887,2.308
734.149,2.314
734.411,2.347
734.673,2.373
734.935,2.397
735.197,2.378
735.459,2.389
735.721,2.404
735.983,2.401
736.245,2.321
736.507,2.285
736.769,2.313
737.031,2.377
737.293,2.373
737.555,2.306
737.818,2.255
738.080,2.211
738.342,2.214
738.604,2.205
738.867,2.220
739.129,2.215
739.391,2.211
739.654,2.206
739.916,2.221
740.178,2.259
740.441,2.325
740.703,2.362
740.966,2.352
741.228,2.319
741.491,2.287
741.753,2.298
742.016,2.304
742.278,2.313
742.541,2.324
742.804,2.333
743.066,2.373
743.329,2.389
743.592,2.370
743.854,2.350
744.117,2.361
744.380,2.396
744.643,2.389
744.905,2.342
745.168,2.314
745.431,2.294
745.694,2.282
745.957,2.264
746.220,2.249
746.483,2.237
746.746,2.236
747.009,2.294
747.272,2.416
