Wavelength (nm),Intensity W34.3,,C:/Users/Brend/Desktop/LED Spectras v2/Spectrometer Data (White 34.3-36).sp,,,W34.3,
379.792,2.480,,2018-06-15 15:32:30,,Integration Time,217 ms,
380.000,2.470,,Analyze Light,,Number of Scans to Average,25,
380.209,2.459,,,,Smoothing,1,
380.418,2.473
380.627,2.497
380.837,2.520
381.048,2.532
381.259,2.529
381.471,2.526
381.683,2.536
381.896,2.563
382.110,2.579
382.324,2.602
382.538,2.625
382.753,2.647
382.969,2.637
383.185,2.617
383.402,2.601
383.619,2.610
383.837,2.633
384.055,2.670
384.274,2.700
384.493,2.717
384.712,2.722
384.932,2.729
385.153,2.738
385.374,2.748
385.596,2.759
385.818,2.787
386.040,2.822
386.263,2.854
386.487,2.861
386.710,2.854
386.935,2.832
387.159,2.819
387.385,2.807
387.610,2.800
387.836,2.797
388.063,2.810
388.289,2.832
388.517,2.851
388.744,2.855
388.972,2.870
389.201,2.882
389.430,2.906
389.659,2.921
389.889,2.942
390.119,2.957
390.349,2.969
390.580,2.980
390.811,2.987
391.042,2.984
391.274,2.988
391.507,2.998
391.739,3.009
391.972,3.006
392.205,3.018
392.439,3.047
392.673,3.083
392.907,3.101
393.142,3.119
393.377,3.140
393.612,3.168
393.848,3.178
394.084,3.183
394.320,3.179
394.557,3.196
394.794,3.208
395.031,3.230
395.269,3.240
395.507,3.254
395.745,3.254
395.983,3.261
396.222,3.275
396.461,3.307
396.700,3.345
396.940,3.367
397.180,3.369
397.420,3.358
397.660,3.354
397.901,3.361
398.142,3.367
398.383,3.368
398.625,3.362
398.866,3.374
399.108,3.409
399.351,3.465
399.593,3.483
399.836,3.485
400.079,3.461
400.322,3.450
400.566,3.433
400.809,3.431
401.053,3.437
401.298,3.448
401.542,3.463
401.787,3.485
402.031,3.505
402.277,3.525
402.522,3.532
402.767,3.546
403.013,3.537
403.259,3.547
403.505,3.550
403.752,3.567
403.998,3.574
404.245,3.600
404.492,3.623
404.739,3.643
404.986,3.650
405.234,3.659
405.482,3.662
405.730,3.665
405.978,3.672
406.226,3.678
406.475,3.673
406.723,3.675
406.972,3.697
407.221,3.732
407.470,3.754
407.720,3.773
407.969,3.765
408.219,3.776
408.469,3.785
408.719,3.809
408.969,3.815
409.219,3.825
409.470,3.836
409.720,3.859
409.971,3.870
410.222,3.892
410.473,3.901
410.724,3.911
410.976,3.914
411.227,3.931
411.479,3.937
411.731,3.948
411.983,3.946
412.235,3.960
412.487,3.961
412.740,3.975
412.992,3.981
413.245,3.993
413.497,3.989
413.750,3.990
414.003,3.983
414.257,3.980
414.510,3.974
414.763,3.993
415.017,4.015
415.270,4.037
415.524,4.041
415.778,4.045
416.032,4.042
416.286,4.055
416.540,4.062
416.794,4.078
417.049,4.078
417.303,4.086
417.558,4.093
417.812,4.098
418.067,4.101
418.322,4.113
418.577,4.123
418.832,4.132
419.088,4.119
419.343,4.130
419.598,4.130
419.854,4.150
420.109,4.158
420.365,4.194
420.621,4.219
420.876,4.251
421.132,4.272
421.388,4.294
421.645,4.306
421.901,4.322
422.157,4.346
422.413,4.385
422.670,4.416
422.926,4.447
423.183,4.457
423.439,4.493
423.696,4.536
423.953,4.621
424.210,4.692
424.467,4.743
424.724,4.762
424.981,4.787
425.238,4.835
425.495,4.915
425.753,4.992
426.010,5.069
426.267,5.127
426.525,5.210
426.782,5.292
427.040,5.382
427.298,5.475
427.555,5.589
427.813,5.700
428.071,5.808
428.329,5.904
428.587,6.011
428.845,6.120
429.103,6.248
429.361,6.376
429.619,6.517
429.878,6.654
430.136,6.811
430.394,6.959
430.653,7.141
430.911,7.339
431.170,7.556
431.428,7.754
431.687,7.945
431.946,8.137
432.204,8.344
432.463,8.562
432.722,8.794
432.981,9.024
433.240,9.284
433.499,9.549
433.758,9.842
434.017,10.108
434.276,10.381
434.535,10.652
434.794,10.953
435.053,11.269
435.312,11.601
435.572,11.929
435.831,12.294
436.090,12.677
436.350,13.084
436.609,13.484
436.869,13.898
437.128,14.318
437.388,14.746
437.647,15.185
437.907,15.649
438.166,16.114
438.426,16.588
438.686,17.080
438.946,17.609
439.205,18.170
439.465,18.764
439.725,19.381
439.985,20.008
440.245,20.613
440.505,21.234
440.765,21.859
441.025,22.507
441.285,23.174
441.545,23.878
441.805,24.627
442.065,25.402
442.325,26.211
442.585,27.060
442.846,27.949
443.106,28.889
443.366,29.864
443.626,30.884
443.887,31.944
444.147,33.044
444.407,34.205
444.668,35.435
444.928,36.735
445.189,38.096
445.449,39.510
445.710,40.986
445.970,42.531
446.231,44.150
446.491,45.849
446.752,47.605
447.012,49.426
447.273,51.320
447.534,53.250
447.794,55.207
448.055,57.204
448.316,59.296
448.577,61.466
448.837,63.683
449.098,65.917
449.359,68.156
449.620,70.357
449.881,72.522
450.142,74.662
450.403,76.816
450.664,78.957
450.924,81.037
451.185,82.954
451.446,84.637
451.707,86.029
451.969,87.179
452.230,88.139
452.491,88.971
452.752,89.678
453.013,90.309
453.274,90.837
453.535,91.277
453.796,91.602
454.058,91.845
454.319,92.016
454.580,92.127
454.841,92.166
455.103,92.141
455.364,92.048
455.625,91.914
455.887,91.737
456.148,91.507
456.409,91.211
456.671,90.833
456.932,90.377
457.194,89.840
457.455,89.214
457.716,88.498
457.978,87.684
458.239,86.742
458.501,85.643
458.763,84.333
459.024,82.794
459.286,81.044
459.547,79.173
459.809,77.287
460.071,75.434
460.332,73.640
460.594,71.877
460.856,70.188
461.117,68.552
461.379,67.017
461.641,65.569
461.903,64.222
462.164,62.941
462.426,61.706
462.688,60.534
462.950,59.430
463.212,58.391
463.474,57.381
463.736,56.424
463.998,55.571
464.260,54.821
464.522,54.155
464.784,53.495
465.046,52.854
465.308,52.257
465.570,51.727
465.832,51.249
466.094,50.777
466.356,50.292
466.618,49.799
466.880,49.290
467.142,48.784
467.405,48.294
467.667,47.845
467.929,47.417
468.191,46.958
468.454,46.464
468.716,45.940
468.978,45.367
469.241,44.754
469.503,44.121
469.765,43.523
470.028,42.929
470.290,42.297
470.552,41.644
470.815,40.979
471.077,40.321
471.340,39.652
471.602,38.974
471.865,38.302
472.128,37.620
472.390,36.952
472.653,36.270
472.915,35.582
473.178,34.875
473.441,34.184
473.703,33.512
473.966,32.855
474.229,32.201
474.492,31.555
474.755,30.908
475.017,30.295
475.280,29.708
475.543,29.177
475.806,28.624
476.069,28.083
476.332,27.546
476.595,27.060
476.858,26.584
477.121,26.118
477.384,25.668
477.647,25.262
477.910,24.890
478.173,24.539
478.436,24.201
478.699,23.896
478.962,23.603
479.226,23.348
479.489,23.083
479.752,22.848
480.015,22.610
480.279,22.399
480.542,22.178
480.805,21.963
481.069,21.743
481.332,21.558
481.595,21.377
481.859,21.241
482.122,21.088
482.386,20.939
482.649,20.773
482.913,20.623
483.177,20.469
483.440,20.315
483.704,20.175
483.967,20.080
484.231,19.991
484.495,19.903
484.759,19.799
485.022,19.686
485.286,19.555
485.550,19.416
485.814,19.269
486.078,19.144
486.342,19.035
486.606,18.963
486.869,18.893
487.133,18.835
487.397,18.777
487.662,18.715
487.926,18.628
488.190,18.542
488.454,18.453
488.718,18.378
488.982,18.284
489.246,18.221
489.511,18.162
489.775,18.131
490.039,18.093
490.304,18.060
490.568,18.015
490.832,17.978
491.097,17.965
491.361,17.978
491.626,17.987
491.890,17.991
492.155,17.989
492.419,18.005
492.684,18.016
492.949,18.041
493.213,18.074
493.478,18.142
493.743,18.207
494.008,18.254
494.272,18.287
494.537,18.351
494.802,18.431
495.067,18.541
495.332,18.662
495.597,18.801
495.862,18.912
496.127,19.023
496.392,19.123
496.657,19.234
496.922,19.334
497.187,19.453
497.452,19.587
497.718,19.748
497.983,19.901
498.248,20.051
498.513,20.176
498.779,20.337
499.044,20.515
499.310,20.692
499.575,20.837
499.841,20.969
500.106,21.096
500.372,21.224
500.637,21.370
500.903,21.545
501.168,21.722
501.434,21.887
501.700,22.038
501.966,22.209
502.231,22.368
502.497,22.528
502.763,22.651
503.029,22.777
503.295,22.913
503.561,23.087
503.827,23.280
504.093,23.468
504.359,23.625
504.625,23.792
504.891,23.948
505.157,24.121
505.423,24.261
505.690,24.407
505.956,24.554
506.222,24.733
506.489,24.932
506.755,25.144
507.021,25.329
507.288,25.489
507.554,25.625
507.821,25.780
508.087,25.950
508.354,26.150
508.621,26.325
508.887,26.484
509.154,26.625
509.421,26.782
509.687,26.925
509.954,27.070
510.221,27.210
510.488,27.385
510.755,27.564
511.022,27.760
511.289,27.925
511.556,28.083
511.823,28.223
512.090,28.388
512.357,28.538
512.624,28.692
512.891,28.826
513.159,28.951
513.426,29.077
513.693,29.206
513.960,29.337
514.228,29.456
514.495,29.585
514.763,29.734
515.030,29.880
515.298,30.017
515.565,30.163
515.833,30.322
516.100,30.445
516.368,30.528
516.636,30.592
516.904,30.708
517.171,30.831
517.439,30.967
517.707,31.081
517.975,31.214
518.243,31.329
518.511,31.437
518.779,31.505
519.047,31.602
519.315,31.709
519.583,31.825
519.851,31.919
520.119,32.011
520.387,32.110
520.656,32.226
520.924,32.337
521.192,32.445
521.461,32.522
521.729,32.586
521.997,32.665
522.266,32.757
522.534,32.848
522.803,32.929
523.071,32.998
523.340,33.078
523.609,33.157
523.877,33.259
524.146,33.345
524.415,33.429
524.684,33.504
524.952,33.594
525.221,33.682
525.490,33.783
525.759,33.859
526.028,33.935
526.297,33.983
526.566,34.048
526.835,34.101
527.104,34.166
527.373,34.220
527.642,34.278
527.912,34.308
528.181,34.353
528.450,34.414
528.719,34.490
528.989,34.567
529.258,34.624
529.528,34.654
529.797,34.659
530.067,34.675
530.336,34.699
530.606,34.728
530.875,34.754
531.145,34.797
531.414,34.853
531.684,34.902
531.954,34.942
532.224,34.961
532.493,34.966
532.763,34.980
533.033,35.027
533.303,35.093
533.573,35.153
533.843,35.172
534.113,35.181
534.383,35.182
534.653,35.217
534.923,35.255
535.193,35.299
535.463,35.328
535.733,35.345
536.004,35.350
536.274,35.358
536.544,35.357
536.814,35.377
537.085,35.410
537.355,35.476
537.626,35.547
537.896,35.609
538.166,35.660
538.437,35.702
538.707,35.750
538.978,35.817
539.249,35.903
539.519,35.989
539.790,36.032
540.061,36.040
540.331,36.042
540.602,36.076
540.873,36.110
541.144,36.137
541.414,36.128
541.685,36.143
541.956,36.153
542.227,36.178
542.498,36.193
542.769,36.235
543.040,36.300
543.311,36.392
543.582,36.488
543.853,36.575
544.124,36.639
544.396,36.684
544.667,36.713
544.938,36.718
545.209,36.660
545.480,36.599
545.752,36.524
546.023,36.489
546.294,36.438
546.566,36.422
546.837,36.420
547.109,36.429
547.380,36.422
547.652,36.412
547.923,36.388
548.195,36.375
548.466,36.367
548.738,36.368
549.009,36.338
549.281,36.296
549.553,36.254
549.824,36.232
550.096,36.224
550.368,36.221
550.640,36.213
550.911,36.207
551.183,36.213
551.455,36.225
551.727,36.227
551.999,36.207
552.271,36.184
552.543,36.171
552.815,36.170
553.087,36.192
553.359,36.188
553.631,36.151
553.903,36.072
554.175,36.005
554.447,35.959
554.719,35.929
554.991,35.889
555.263,35.847
555.535,35.796
555.808,35.765
556.080,35.736
556.352,35.707
556.624,35.672
556.897,35.632
557.169,35.594
557.441,35.542
557.714,35.478
557.986,35.432
558.258,35.378
558.531,35.365
558.803,35.362
559.076,35.364
559.348,35.331
559.621,35.257
559.893,35.195
560.166,35.146
560.438,35.106
560.711,35.063
560.983,35.029
561.256,35.019
561.528,35.015
561.801,35.007
562.074,34.989
562.346,34.975
562.619,34.932
562.892,34.874
563.164,34.808
563.437,34.786
563.710,34.764
563.983,34.741
564.255,34.707
564.528,34.724
564.801,34.748
565.074,34.771
565.346,34.732
565.619,34.696
565.892,34.629
566.165,34.553
566.438,34.428
566.711,34.304
566.984,34.192
567.257,34.112
567.529,34.054
567.802,34.027
568.075,34.007
568.348,33.982
568.621,33.946
568.894,33.896
569.167,33.833
569.440,33.757
569.713,33.657
569.986,33.558
570.259,33.448
570.532,33.355
570.805,33.274
571.078,33.218
571.351,33.176
571.625,33.127
571.898,33.055
572.171,32.948
572.444,32.818
572.717,32.695
572.990,32.582
573.263,32.463
573.536,32.343
573.809,32.244
574.083,32.191
574.356,32.175
574.629,32.176
574.902,32.156
575.175,32.096
575.448,31.991
575.721,31.866
575.995,31.756
576.268,31.664
576.541,31.600
576.814,31.550
577.087,31.517
577.361,31.487
577.634,31.436
577.907,31.349
578.180,31.244
578.453,31.140
578.727,31.053
579.000,30.958
579.273,30.879
579.546,30.833
579.820,30.833
580.093,30.827
580.366,30.806
580.639,30.753
580.913,30.699
581.186,30.608
581.459,30.508
581.732,30.371
582.005,30.262
582.279,30.148
582.552,30.065
582.825,29.971
583.098,29.895
583.372,29.841
583.645,29.826
583.918,29.835
584.191,29.829
584.464,29.789
584.738,29.722
585.011,29.628
585.284,29.516
585.557,29.392
585.831,29.297
586.104,29.234
586.377,29.219
586.650,29.202
586.923,29.178
587.196,29.130
587.470,29.062
587.743,28.998
588.016,28.923
588.289,28.844
588.562,28.746
588.835,28.623
589.109,28.494
589.382,28.386
589.655,28.308
589.928,28.259
590.201,28.218
590.474,28.199
590.747,28.172
591.020,28.117
591.293,28.025
591.567,27.896
591.840,27.752
592.113,27.605
592.386,27.482
592.659,27.381
592.932,27.298
593.205,27.223
593.478,27.159
593.751,27.096
594.024,27.036
594.297,26.949
594.570,26.835
594.843,26.721
595.116,26.614
595.389,26.515
595.662,26.419
595.934,26.334
596.207,26.267
596.480,26.193
596.753,26.125
597.026,26.044
597.299,25.974
597.572,25.892
597.844,25.795
598.117,25.656
598.390,25.507
598.663,25.345
598.936,25.189
599.208,25.040
599.481,24.921
599.754,24.826
600.026,24.742
600.299,24.663
600.572,24.584
600.844,24.482
601.117,24.363
601.390,24.229
601.662,24.108
601.935,23.969
602.207,23.840
602.480,23.716
602.752,23.608
603.025,23.475
603.297,23.348
603.570,23.250
603.842,23.198
604.115,23.126
604.387,23.033
604.660,22.898
604.932,22.764
605.204,22.630
605.477,22.517
605.749,22.411
606.021,22.300
606.294,22.179
606.566,22.048
606.838,21.935
607.110,21.847
607.383,21.787
607.655,21.738
607.927,21.696
608.199,21.637
608.471,21.540
608.743,21.399
609.015,21.245
609.287,21.115
609.559,20.995
609.831,20.883
610.103,20.757
610.375,20.638
610.647,20.510
610.919,20.371
611.191,20.217
611.463,20.064
611.735,19.918
612.007,19.771
612.278,19.621
612.550,19.484
612.822,19.354
613.094,19.229
613.365,19.081
613.637,18.963
613.909,18.839
614.180,18.728
614.452,18.580
614.723,18.439
614.995,18.302
615.266,18.187
615.538,18.084
615.809,17.987
616.081,17.874
616.352,17.742
616.623,17.602
616.895,17.478
617.166,17.345
617.437,17.204
617.709,17.067
617.980,16.970
618.251,16.903
618.522,16.855
618.793,16.809
619.065,16.772
619.336,16.686
619.607,16.569
619.878,16.427
620.149,16.312
620.420,16.195
620.691,16.079
620.962,15.983
621.232,15.919
621.503,15.844
621.774,15.776
622.045,15.697
622.316,15.645
622.586,15.561
622.857,15.479
623.128,15.354
623.398,15.241
623.669,15.109
623.940,15.001
624.210,14.890
624.481,14.812
624.751,14.736
625.021,14.661
625.292,14.576
625.562,14.524
625.833,14.477
626.103,14.430
626.373,14.349
626.643,14.265
626.914,14.167
627.184,14.073
627.454,13.978
627.724,13.885
627.994,13.804
628.264,13.737
628.534,13.665
628.804,13.589
629.074,13.518
629.344,13.463
629.614,13.418
629.884,13.365
630.154,13.308
630.424,13.238
630.693,13.162
630.963,13.075
631.233,12.977
631.502,12.890
631.772,12.819
632.041,12.759
632.311,12.682
632.581,12.595
632.850,12.505
633.119,12.407
633.389,12.317
633.658,12.251
633.928,12.217
634.197,12.200
634.466,12.181
634.735,12.147
635.004,12.082
635.274,11.999
635.543,11.913
635.812,11.841
636.081,11.781
636.350,11.730
636.619,11.677
636.888,11.623
637.157,11.568
637.426,11.516
637.694,11.455
637.963,11.380
638.232,11.311
638.501,11.243
638.769,11.184
639.038,11.120
639.307,11.067
639.575,11.015
639.844,10.937
640.112,10.851
640.381,10.763
640.649,10.706
640.917,10.658
641.186,10.607
641.454,10.554
641.722,10.489
641.991,10.424
642.259,10.340
642.527,10.265
642.795,10.199
643.063,10.144
643.331,10.098
643.599,10.053
643.867,10.034
644.135,10.008
644.403,9.984
644.671,9.930
644.939,9.884
645.206,9.823
645.474,9.771
645.742,9.700
646.009,9.619
646.277,9.544
646.545,9.485
646.812,9.451
647.080,9.420
647.347,9.373
647.615,9.310
647.882,9.229
648.149,9.146
648.417,9.063
648.684,8.996
648.951,8.952
649.219,8.913
649.486,8.869
649.753,8.816
650.020,8.749
650.287,8.678
650.554,8.605
650.821,8.541
651.088,8.473
651.355,8.418
651.622,8.360
651.889,8.321
652.155,8.276
652.422,8.244
652.689,8.215
652.956,8.176
653.222,8.133
653.489,8.095
653.755,8.049
654.022,7.978
654.288,7.875
654.555,7.778
654.821,7.703
655.088,7.656
655.354,7.610
655.620,7.566
655.887,7.517
656.153,7.477
656.419,7.435
656.685,7.391
656.951,7.346
657.217,7.301
657.483,7.251
657.749,7.196
658.015,7.143
658.281,7.088
658.547,7.022
658.813,6.952
659.079,6.881
659.345,6.818
659.610,6.765
659.876,6.720
660.142,6.688
660.407,6.653
660.673,6.616
660.939,6.580
661.204,6.537
661.470,6.495
661.735,6.452
662.000,6.413
662.266,6.365
662.531,6.303
662.796,6.239
663.062,6.178
663.327,6.120
663.592,6.082
663.857,6.048
664.122,6.024
664.388,5.981
664.653,5.939
664.918,5.898
665.183,5.864
665.448,5.839
665.712,5.817
665.977,5.796
666.242,5.764
666.507,5.692
666.772,5.618
667.037,5.543
667.301,5.504
667.566,5.471
667.831,5.451
668.095,5.426
668.360,5.399
668.624,5.351
668.889,5.325
669.153,5.293
669.418,5.276
669.682,5.249
669.946,5.228
670.211,5.213
670.475,5.186
670.739,5.155
671.004,5.127
671.268,5.125
671.532,5.141
671.796,5.094
672.060,5.022
672.324,4.935
672.588,4.894
672.852,4.874
673.116,4.889
673.380,4.918
673.644,4.869
673.908,4.781
674.172,4.684
674.436,4.646
674.700,4.611
674.963,4.576
675.227,4.549
675.491,4.512
675.754,4.474
676.018,4.432
676.282,4.404
676.545,4.370
676.809,4.330
677.072,4.283
677.336,4.243
677.599,4.217
677.863,4.190
678.126,4.168
678.389,4.157
678.653,4.151
678.916,4.130
679.179,4.084
679.442,4.043
679.706,4.015
679.969,3.993
680.232,3.969
680.495,3.957
680.758,3.953
681.021,3.937
681.284,3.900
681.547,3.851
681.810,3.818
682.073,3.812
682.336,3.813
682.599,3.800
682.862,3.776
683.125,3.758
683.388,3.752
683.651,3.740
683.913,3.715
684.176,3.668
684.439,3.616
684.702,3.562
684.964,3.529
685.227,3.512
685.490,3.509
685.752,3.510
686.015,3.490
686.277,3.464
686.540,3.431
686.802,3.396
687.065,3.375
687.327,3.365
687.590,3.359
687.852,3.333
688.115,3.292
688.377,3.261
688.639,3.244
688.902,3.232
689.164,3.218
689.426,3.212
689.689,3.212
689.951,3.200
690.213,3.178
690.475,3.152
690.737,3.122
691.000,3.086
691.262,3.059
691.524,3.054
691.786,3.062
692.048,3.069
692.310,3.055
692.572,3.024
692.834,2.984
693.096,2.961
693.358,2.959
693.620,2.968
693.882,2.972
694.144,2.960
694.406,2.933
694.668,2.905
694.930,2.877
695.192,2.854
695.453,2.837
695.715,2.829
695.977,2.812
696.239,2.783
696.501,2.762
696.762,2.760
697.024,2.766
697.286,2.748
697.548,2.725
697.809,2.704
698.071,2.685
698.333,2.665
698.594,2.641
698.856,2.636
699.118,2.629
699.379,2.622
699.641,2.615
699.902,2.614
700.164,2.604
700.426,2.582
700.687,2.552
700.949,2.540
701.210,2.532
701.472,2.518
701.733,2.490
701.995,2.474
702.256,2.459
702.518,2.449
702.779,2.428
703.041,2.432
703.302,2.448
703.563,2.445
703.825,2.421
704.086,2.394
704.348,2.383
704.609,2.377
704.871,2.383
705.132,2.394
705.393,2.383
705.655,2.364
705.916,2.350
706.177,2.349
706.439,2.345
706.700,2.333
706.961,2.319
707.223,2.309
707.484,2.281
707.745,2.257
708.007,2.229
708.268,2.204
708.529,2.175
708.790,2.133
709.052,2.103
709.313,2.093
709.574,2.101
709.835,2.111
710.097,2.097
710.358,2.061
710.619,2.023
710.881,1.992
711.142,1.976
711.403,1.962
711.664,1.960
711.926,1.949
712.187,1.945
712.448,1.940
712.709,1.947
712.970,1.950
713.232,1.948
713.493,1.944
713.754,1.937
714.015,1.932
714.277,1.936
714.538,1.947
714.799,1.966
715.060,1.972
715.322,1.966
715.583,1.943
715.844,1.923
716.105,1.903
716.367,1.889
716.628,1.876
716.889,1.863
717.150,1.842
717.411,1.819
717.673,1.810
717.934,1.811
718.195,1.816
718.457,1.801
718.718,1.777
718.979,1.763
719.240,1.768
719.502,1.787
719.763,1.800
720.024,1.803
720.286,1.800
720.547,1.782
720.808,1.766
721.069,1.754
721.331,1.761
721.592,1.777
721.853,1.786
722.115,1.788
722.376,1.784
722.638,1.773
722.899,1.760
723.160,1.740
723.422,1.723
723.683,1.709
723.944,1.711
724.206,1.718
724.467,1.722
724.729,1.716
724.990,1.720
725.252,1.729
725.513,1.722
725.775,1.701
726.036,1.680
726.298,1.672
726.559,1.679
726.821,1.679
727.082,1.678
727.344,1.671
727.605,1.669
727.867,1.659
728.128,1.656
728.390,1.656
728.652,1.670
728.913,1.691
729.175,1.711
729.436,1.719
729.698,1.720
729.960,1.712
730.221,1.701
730.483,1.677
730.745,1.666
731.007,1.665
731.268,1.668
731.530,1.665
731.792,1.659
732.054,1.664
732.315,1.673
732.577,1.681
732.839,1.672
733.101,1.658
733.363,1.651
733.625,1.650
733.887,1.655
734.149,1.654
734.411,1.663
734.673,1.670
734.935,1.676
735.197,1.673
735.459,1.676
735.721,1.676
