Wavelength (nm),Intensity W35.3,,C:/Users/Brend/Desktop/LED Spectras v2/Spectrometer Data (White 34.3-36).sp,,,W35.3,
379.792,2.743,,2018-06-15 15:35:17,,Integration Time,304 ms,
380.000,2.728,,Analyze Light,,Number of Scans to Average,25,
380.209,2.711,,,,Smoothing,1,
380.418,2.732
380.627,2.769
380.837,2.810
381.048,2.828
381.259,2.826
381.471,2.816
381.683,2.820
381.896,2.843
382.110,2.857
382.324,2.883
382.538,2.919
382.753,2.954
382.969,2.944
383.185,2.917
383.402,2.898
383.619,2.918
383.837,2.949
384.055,2.996
384.274,3.031
384.493,3.051
384.712,3.051
384.932,3.054
385.153,3.062
385.374,3.078
385.596,3.093
385.818,3.134
386.040,3.182
386.263,3.229
386.487,3.242
386.710,3.238
386.935,3.210
387.159,3.197
387.385,3.176
387.610,3.173
387.836,3.173
388.063,3.193
388.289,3.210
388.517,3.219
388.744,3.212
388.972,3.237
389.201,3.261
389.430,3.291
389.659,3.304
389.889,3.326
390.119,3.342
390.349,3.361
390.580,3.382
390.811,3.401
391.042,3.399
391.274,3.399
391.507,3.409
391.739,3.421
391.972,3.419
392.205,3.429
392.439,3.455
392.673,3.488
392.907,3.512
393.142,3.540
393.377,3.558
393.612,3.583
393.848,3.582
394.084,3.594
394.320,3.592
394.557,3.608
394.794,3.607
395.031,3.624
395.269,3.645
395.507,3.680
395.745,3.694
395.983,3.702
396.222,3.707
396.461,3.739
396.700,3.778
396.940,3.809
397.180,3.816
397.420,3.804
397.660,3.793
397.901,3.781
398.142,3.783
398.383,3.782
398.625,3.781
398.866,3.801
399.108,3.845
399.351,3.915
399.593,3.936
399.836,3.935
400.079,3.903
400.322,3.889
400.566,3.873
400.809,3.873
401.053,3.882
401.298,3.900
401.542,3.922
401.787,3.954
402.031,3.977
402.277,3.999
402.522,4.007
402.767,4.027
403.013,4.025
403.259,4.031
403.505,4.032
403.752,4.052
403.998,4.067
404.245,4.109
404.492,4.150
404.739,4.180
404.986,4.181
405.234,4.182
405.482,4.183
405.730,4.181
405.978,4.181
406.226,4.176
406.475,4.173
406.723,4.178
406.972,4.208
407.221,4.248
407.470,4.269
407.720,4.278
407.969,4.255
408.219,4.262
408.469,4.279
408.719,4.318
408.969,4.336
409.219,4.355
409.470,4.372
409.720,4.405
409.971,4.428
410.222,4.458
410.473,4.462
410.724,4.464
410.976,4.465
411.227,4.483
411.479,4.496
411.731,4.514
411.983,4.511
412.235,4.511
412.487,4.500
412.740,4.511
412.992,4.521
413.245,4.541
413.497,4.543
413.750,4.545
414.003,4.534
414.257,4.524
414.510,4.516
414.763,4.535
415.017,4.560
415.270,4.585
415.524,4.585
415.778,4.587
416.032,4.593
416.286,4.630
416.540,4.664
416.794,4.701
417.049,4.710
417.303,4.719
417.558,4.726
417.812,4.736
418.067,4.739
418.322,4.749
418.577,4.749
418.832,4.757
419.088,4.742
419.343,4.756
419.598,4.748
419.854,4.766
420.109,4.786
420.365,4.838
420.621,4.871
420.876,4.906
421.132,4.922
421.388,4.932
421.645,4.933
421.901,4.959
422.157,4.995
422.413,5.039
422.670,5.065
422.926,5.091
423.183,5.101
423.439,5.139
423.696,5.197
423.953,5.305
424.210,5.399
424.467,5.458
424.724,5.476
424.981,5.491
425.238,5.536
425.495,5.620
425.753,5.699
426.010,5.781
426.267,5.841
426.525,5.936
426.782,6.028
427.040,6.141
427.298,6.260
427.555,6.407
427.813,6.535
428.071,6.650
428.329,6.751
428.587,6.860
428.845,6.976
429.103,7.108
429.361,7.241
429.619,7.384
429.878,7.529
430.136,7.709
430.394,7.880
430.653,8.092
430.911,8.308
431.170,8.539
431.428,8.729
431.687,8.915
431.946,9.107
432.204,9.338
432.463,9.580
432.722,9.830
432.981,10.072
433.240,10.341
433.499,10.629
433.758,10.950
434.017,11.246
434.276,11.539
434.535,11.816
434.794,12.117
435.053,12.444
435.312,12.799
435.572,13.159
435.831,13.535
436.090,13.942
436.350,14.366
436.609,14.794
436.869,15.213
437.128,15.635
437.388,16.061
437.647,16.502
437.907,16.988
438.166,17.488
438.426,17.992
438.686,18.497
438.946,19.029
439.205,19.596
439.465,20.193
439.725,20.816
439.985,21.466
440.245,22.096
440.505,22.733
440.765,23.363
441.025,24.012
441.285,24.699
441.545,25.426
441.805,26.199
442.065,26.970
442.325,27.759
442.585,28.593
442.846,29.494
443.106,30.473
443.366,31.479
443.626,32.506
443.887,33.551
444.147,34.648
444.407,35.805
444.668,37.010
444.928,38.284
445.189,39.622
445.449,41.036
445.710,42.500
445.970,44.022
446.231,45.599
446.491,47.249
446.752,48.954
447.012,50.715
447.273,52.540
447.534,54.413
447.794,56.318
448.055,58.235
448.316,60.230
448.577,62.305
448.837,64.450
449.098,66.633
449.359,68.808
449.620,70.930
449.881,73.013
450.142,75.067
450.403,77.151
450.664,79.211
450.924,81.209
451.185,83.036
451.446,84.632
451.707,85.959
451.969,87.076
452.230,88.003
452.491,88.817
452.752,89.516
453.013,90.142
453.274,90.679
453.535,91.127
453.796,91.472
454.058,91.725
454.319,91.903
454.580,92.010
454.841,92.059
455.103,92.054
455.364,92.002
455.625,91.908
455.887,91.762
456.148,91.566
456.409,91.313
456.671,91.007
456.932,90.630
457.194,90.191
457.455,89.692
457.716,89.122
457.978,88.486
458.239,87.759
458.501,86.947
458.763,85.985
459.024,84.865
459.286,83.557
459.547,82.091
459.809,80.491
460.071,78.854
460.332,77.255
460.594,75.694
460.856,74.160
461.117,72.643
461.379,71.215
461.641,69.859
461.903,68.584
462.164,67.339
462.426,66.145
462.688,64.997
462.950,63.919
463.212,62.900
463.474,61.896
463.736,60.896
463.998,59.937
464.260,59.080
464.522,58.314
464.784,57.596
465.046,56.889
465.308,56.236
465.570,55.629
465.832,55.048
466.094,54.470
466.356,53.911
466.618,53.367
466.880,52.816
467.142,52.254
467.405,51.700
467.667,51.164
467.929,50.637
468.191,50.110
468.454,49.563
468.716,48.998
468.978,48.403
469.241,47.773
469.503,47.119
469.765,46.499
470.028,45.915
470.290,45.309
470.552,44.648
470.815,43.973
471.077,43.304
471.340,42.652
471.602,41.981
471.865,41.316
472.128,40.639
472.390,39.985
472.653,39.330
472.915,38.691
473.178,38.029
473.441,37.369
473.703,36.712
473.966,36.070
474.229,35.447
474.492,34.807
474.755,34.152
475.017,33.530
475.280,32.944
475.543,32.399
475.806,31.834
476.069,31.266
476.332,30.710
476.595,30.199
476.858,29.703
477.121,29.208
477.384,28.710
477.647,28.258
477.910,27.848
478.173,27.464
478.436,27.097
478.699,26.756
478.962,26.428
479.226,26.141
479.489,25.860
479.752,25.600
480.015,25.322
480.279,25.051
480.542,24.769
480.805,24.499
481.069,24.232
481.332,24.001
481.595,23.789
481.859,23.632
482.122,23.453
482.386,23.260
482.649,23.051
482.913,22.870
483.177,22.696
483.440,22.522
483.704,22.351
483.967,22.229
484.231,22.126
484.495,22.048
484.759,21.947
485.022,21.820
485.286,21.671
485.550,21.517
485.814,21.338
486.078,21.173
486.342,21.033
486.606,20.949
486.869,20.878
487.133,20.823
487.397,20.775
487.662,20.718
487.926,20.634
488.190,20.548
488.454,20.473
488.718,20.415
488.982,20.324
489.246,20.235
489.511,20.143
489.775,20.072
490.039,20.009
490.304,19.951
490.568,19.892
490.832,19.855
491.097,19.855
491.361,19.895
491.626,19.920
491.890,19.924
492.155,19.912
492.419,19.919
492.684,19.917
492.949,19.933
493.213,19.964
493.478,20.036
493.743,20.095
494.008,20.118
494.272,20.131
494.537,20.197
494.802,20.308
495.067,20.448
495.332,20.564
495.597,20.675
495.862,20.758
496.127,20.854
496.392,20.950
496.657,21.045
496.922,21.145
497.187,21.278
497.452,21.451
497.718,21.662
497.983,21.848
498.248,22.007
498.513,22.119
498.779,22.266
499.044,22.427
499.310,22.574
499.575,22.687
499.841,22.816
500.106,22.967
500.372,23.122
500.637,23.286
500.903,23.499
501.168,23.705
501.434,23.875
501.700,23.987
501.966,24.123
502.231,24.271
502.497,24.440
502.763,24.581
503.029,24.724
503.295,24.877
503.561,25.062
503.827,25.253
504.093,25.440
504.359,25.615
504.625,25.796
504.891,25.967
505.157,26.153
505.423,26.314
505.690,26.480
505.956,26.642
506.222,26.836
506.489,27.037
506.755,27.251
507.021,27.445
507.288,27.638
507.554,27.804
507.821,27.992
508.087,28.176
508.354,28.384
508.621,28.554
508.887,28.713
509.154,28.853
509.421,29.022
509.687,29.183
509.954,29.343
510.221,29.494
510.488,29.684
510.755,29.891
511.022,30.107
511.289,30.255
511.556,30.392
511.823,30.501
512.090,30.664
512.357,30.806
512.624,30.976
512.891,31.126
513.159,31.268
513.426,31.392
513.693,31.526
513.960,31.670
514.228,31.832
514.495,31.990
514.763,32.151
515.030,32.284
515.298,32.411
515.565,32.558
515.833,32.708
516.100,32.831
516.368,32.938
516.636,33.028
516.904,33.144
517.171,33.237
517.439,33.360
517.707,33.482
517.975,33.640
518.243,33.795
518.511,33.938
518.779,34.032
519.047,34.154
519.315,34.282
519.583,34.420
519.851,34.505
520.119,34.581
520.387,34.648
520.656,34.738
520.924,34.850
521.192,34.969
521.461,35.075
521.729,35.159
521.997,35.230
522.266,35.304
522.534,35.391
522.803,35.517
523.071,35.642
523.340,35.748
523.609,35.815
523.877,35.897
524.146,35.993
524.415,36.098
524.684,36.180
524.952,36.257
525.221,36.334
525.490,36.455
525.759,36.576
526.028,36.679
526.297,36.718
526.566,36.750
526.835,36.798
527.104,36.883
527.373,36.981
527.642,37.075
527.912,37.130
528.181,37.167
528.450,37.210
528.719,37.268
528.989,37.332
529.258,37.393
529.528,37.439
529.797,37.455
530.067,37.483
530.336,37.517
530.606,37.554
530.875,37.563
531.145,37.573
531.414,37.611
531.684,37.677
531.954,37.731
532.224,37.768
532.493,37.761
532.763,37.762
533.033,37.796
533.303,37.851
533.573,37.922
533.843,37.939
534.113,37.959
534.383,37.953
534.653,37.976
534.923,38.008
535.193,38.058
535.463,38.119
535.733,38.177
536.004,38.224
536.274,38.261
536.544,38.281
536.814,38.300
537.085,38.324
537.355,38.377
537.626,38.453
537.896,38.525
538.166,38.578
538.437,38.626
538.707,38.660
538.978,38.709
539.249,38.781
539.519,38.869
539.790,38.924
540.061,38.956
540.331,38.981
540.602,39.026
540.873,39.058
541.144,39.099
541.414,39.118
541.685,39.154
541.956,39.183
542.227,39.228
542.498,39.254
542.769,39.297
543.040,39.349
543.311,39.438
543.582,39.531
543.853,39.627
544.124,39.698
544.396,39.740
544.667,39.749
544.938,39.733
545.209,39.656
545.480,39.576
545.752,39.491
546.023,39.450
546.294,39.392
546.566,39.353
546.837,39.317
547.109,39.304
547.380,39.291
547.652,39.275
547.923,39.238
548.195,39.216
548.466,39.217
548.738,39.246
549.009,39.237
549.281,39.210
549.553,39.167
549.824,39.129
550.096,39.103
550.368,39.101
550.640,39.113
550.911,39.114
551.183,39.127
551.455,39.147
551.727,39.145
551.999,39.096
552.271,39.032
552.543,39.011
552.815,38.998
553.087,39.001
553.359,38.971
553.631,38.917
553.903,38.820
554.175,38.733
554.447,38.669
554.719,38.642
554.991,38.612
555.263,38.587
555.535,38.548
555.808,38.524
556.080,38.490
556.352,38.457
556.624,38.394
556.897,38.326
557.169,38.256
557.441,38.204
557.714,38.149
557.986,38.115
558.258,38.077
558.531,38.080
558.803,38.078
559.076,38.079
559.348,38.040
559.621,37.994
559.893,37.952
560.166,37.916
560.438,37.872
560.711,37.842
560.983,37.838
561.256,37.865
561.528,37.869
561.801,37.846
562.074,37.805
562.346,37.767
562.619,37.729
562.892,37.682
563.164,37.624
563.437,37.585
563.710,37.528
563.983,37.463
564.255,37.396
564.528,37.381
564.801,37.414
565.074,37.445
565.346,37.410
565.619,37.331
565.892,37.224
566.165,37.117
566.438,36.989
566.711,36.876
566.984,36.776
567.257,36.713
567.529,36.672
567.802,36.674
568.075,36.667
568.348,36.635
568.621,36.588
568.894,36.539
569.167,36.470
569.440,36.377
569.713,36.255
569.986,36.147
570.259,36.021
570.532,35.929
570.805,35.849
571.078,35.799
571.351,35.748
571.625,35.696
571.898,35.607
572.171,35.484
572.444,35.341
572.717,35.230
572.990,35.134
573.263,35.022
573.536,34.882
573.809,34.740
574.083,34.625
574.356,34.562
574.629,34.532
574.902,34.502
575.175,34.423
575.448,34.301
575.721,34.170
575.995,34.078
576.268,34.010
576.541,33.978
576.814,33.960
577.087,33.961
577.361,33.937
577.634,33.874
577.907,33.752
578.180,33.603
578.453,33.462
578.727,33.362
579.000,33.265
579.273,33.201
579.546,33.166
579.820,33.184
580.093,33.186
580.366,33.156
580.639,33.087
580.913,33.011
581.186,32.922
581.459,32.829
581.732,32.704
582.005,32.588
582.279,32.459
582.552,32.349
582.825,32.249
583.098,32.176
583.372,32.129
583.645,32.099
583.918,32.079
584.191,32.045
584.464,31.979
584.738,31.898
585.011,31.802
585.284,31.709
585.557,31.592
585.831,31.491
586.104,31.415
586.377,31.396
586.650,31.383
586.923,31.375
587.196,31.337
587.470,31.263
587.743,31.167
588.016,31.078
588.289,30.992
588.562,30.919
588.835,30.822
589.109,30.712
589.382,30.585
589.655,30.479
589.928,30.409
590.201,30.353
590.474,30.313
590.747,30.272
591.020,30.213
591.293,30.118
591.567,29.988
591.840,29.822
592.113,29.649
592.386,29.481
592.659,29.333
592.932,29.225
593.205,29.151
593.478,29.112
593.751,29.054
594.024,28.988
594.297,28.894
594.570,28.791
594.843,28.685
595.116,28.589
595.389,28.496
595.662,28.396
595.934,28.294
596.207,28.210
596.480,28.139
596.753,28.075
597.026,27.990
597.299,27.895
597.572,27.784
597.844,27.662
598.117,27.508
598.390,27.346
598.663,27.173
598.936,27.025
599.208,26.895
599.481,26.788
599.754,26.691
600.026,26.582
600.299,26.469
600.572,26.357
600.844,26.235
601.117,26.108
601.390,25.974
601.662,25.847
601.935,25.694
602.207,25.530
602.480,25.374
602.752,25.237
603.025,25.095
603.297,24.976
603.570,24.883
603.842,24.828
604.115,24.745
604.387,24.655
604.660,24.514
604.932,24.393
605.204,24.268
605.477,24.150
605.749,24.021
606.021,23.902
606.294,23.801
606.566,23.691
606.838,23.590
607.110,23.510
607.383,23.446
607.655,23.387
607.927,23.323
608.199,23.261
608.471,23.167
608.743,23.039
609.015,22.886
609.287,22.737
609.559,22.591
609.831,22.463
610.103,22.327
610.375,22.184
610.647,22.023
610.919,21.855
611.191,21.694
611.463,21.544
611.735,21.390
612.007,21.233
612.278,21.065
612.550,20.924
612.822,20.793
613.094,20.679
613.365,20.537
613.637,20.416
613.909,20.274
614.180,20.145
614.452,19.986
614.723,19.831
614.995,19.679
615.266,19.555
615.538,19.446
615.809,19.348
616.081,19.210
616.352,19.058
616.623,18.890
616.895,18.753
617.166,18.614
617.437,18.487
617.709,18.359
617.980,18.266
618.251,18.199
618.522,18.145
618.793,18.100
619.065,18.067
619.336,17.984
619.607,17.866
619.878,17.720
620.149,17.608
620.420,17.481
620.691,17.336
620.962,17.187
621.232,17.076
621.503,16.967
621.774,16.882
622.045,16.793
622.316,16.745
622.586,16.683
622.857,16.622
623.128,16.522
623.398,16.418
623.669,16.294
623.940,16.175
624.210,16.051
624.481,15.954
624.751,15.864
625.021,15.781
625.292,15.679
625.562,15.605
625.833,15.521
626.103,15.450
626.373,15.348
626.643,15.262
626.914,15.170
627.184,15.088
627.454,14.995
627.724,14.901
627.994,14.818
628.264,14.742
628.534,14.650
628.804,14.550
629.074,14.477
629.344,14.436
629.614,14.407
629.884,14.353
630.154,14.283
630.424,14.192
630.693,14.087
630.963,13.975
631.233,13.865
631.502,13.780
631.772,13.726
632.041,13.678
632.311,13.604
632.581,13.512
632.850,13.419
633.119,13.318
633.389,13.222
633.658,13.156
633.928,13.128
634.197,13.115
634.466,13.084
634.735,13.045
635.004,12.967
635.274,12.876
635.543,12.782
635.812,12.709
636.081,12.657
636.350,12.609
636.619,12.551
636.888,12.481
637.157,12.395
637.426,12.321
637.694,12.251
637.963,12.194
638.232,12.137
638.501,12.080
638.769,12.025
639.038,11.968
639.307,11.919
639.575,11.867
639.844,11.795
640.112,11.707
640.381,11.610
640.649,11.532
640.917,11.476
641.186,11.419
641.454,11.367
641.722,11.300
641.991,11.227
642.259,11.133
642.527,11.052
642.795,10.997
643.063,10.935
643.331,10.874
643.599,10.818
643.867,10.799
644.135,10.764
644.403,10.718
644.671,10.652
644.939,10.603
645.206,10.551
645.474,10.499
645.742,10.426
646.009,10.338
646.277,10.268
646.545,10.213
646.812,10.193
647.080,10.167
647.347,10.131
647.615,10.066
647.882,9.971
648.149,9.871
648.417,9.783
648.684,9.725
648.951,9.698
649.219,9.666
649.486,9.620
649.753,9.555
650.020,9.474
650.287,9.385
650.554,9.288
650.821,9.203
651.088,9.119
651.355,9.070
651.622,9.017
651.889,8.985
652.155,8.926
652.422,8.876
652.689,8.830
652.956,8.786
653.222,8.751
653.489,8.737
653.755,8.705
654.022,8.635
654.288,8.523
654.555,8.418
654.821,8.340
655.088,8.282
655.354,8.234
655.620,8.196
655.887,8.147
656.153,8.107
656.419,8.059
656.685,8.012
656.951,7.955
657.217,7.893
657.483,7.835
657.749,7.780
658.015,7.732
658.281,7.675
658.547,7.597
658.813,7.515
659.079,7.431
659.345,7.355
659.610,7.282
659.876,7.227
660.142,7.186
660.407,7.156
660.673,7.121
660.939,7.093
661.204,7.043
661.470,6.986
661.735,6.925
662.000,6.890
662.266,6.855
662.531,6.808
662.796,6.752
663.062,6.696
663.327,6.645
663.592,6.598
663.857,6.553
664.122,6.515
664.388,6.469
664.653,6.436
664.918,6.412
665.183,6.382
665.448,6.358
665.712,6.331
665.977,6.308
666.242,6.259
666.507,6.155
666.772,6.056
667.037,5.971
667.301,5.942
667.566,5.910
667.831,5.885
668.095,5.844
668.360,5.813
668.624,5.755
668.889,5.729
669.153,5.690
669.418,5.666
669.682,5.637
669.946,5.624
670.211,5.627
670.475,5.608
670.739,5.585
671.004,5.561
671.268,5.563
671.532,5.587
671.796,5.531
672.060,5.458
672.324,5.356
672.588,5.330
672.852,5.320
673.116,5.364
673.380,5.417
673.644,5.355
673.908,5.229
674.172,5.087
674.436,5.044
674.700,5.015
674.963,4.992
675.227,4.964
675.491,4.912
675.754,4.858
676.018,4.804
676.282,4.778
676.545,4.748
676.809,4.705
677.072,4.648
677.336,4.589
677.599,4.557
677.863,4.530
678.126,4.513
678.389,4.510
678.653,4.513
678.916,4.503
679.179,4.456
679.442,4.402
679.706,4.366
679.969,4.335
680.232,4.313
680.495,4.305
680.758,4.302
681.021,4.279
681.284,4.225
681.547,4.169
681.810,4.145
682.073,4.151
682.336,4.156
682.599,4.134
682.862,4.099
683.125,4.077
683.388,4.071
683.651,4.057
683.913,4.036
684.176,3.985
684.439,3.928
684.702,3.859
684.964,3.814
685.227,3.792
685.490,3.794
685.752,3.816
686.015,3.818
686.277,3.796
686.540,3.744
686.802,3.689
687.065,3.660
687.327,3.655
687.590,3.654
687.852,3.627
688.115,3.573
688.377,3.529
688.639,3.496
688.902,3.478
689.164,3.471
689.426,3.478
689.689,3.486
689.951,3.471
690.213,3.446
690.475,3.417
690.737,3.386
691.000,3.352
691.262,3.327
691.524,3.326
691.786,3.337
692.048,3.347
692.310,3.331
692.572,3.284
692.834,3.231
693.096,3.197
693.358,3.199
693.620,3.215
693.882,3.229
694.144,3.220
694.406,3.188
694.668,3.154
694.930,3.122
695.192,3.091
695.453,3.075
695.715,3.059
695.977,3.039
696.239,3.002
696.501,2.977
696.762,2.979
697.024,2.982
697.286,2.959
697.548,2.929
697.809,2.903
698.071,2.887
698.333,2.868
698.594,2.851
698.856,2.848
699.118,2.846
699.379,2.839
699.641,2.835
699.902,2.834
700.164,2.828
700.426,2.807
700.687,2.771
700.949,2.751
701.210,2.735
701.472,2.719
701.733,2.686
701.995,2.669
702.256,2.660
702.518,2.656
702.779,2.638
703.041,2.651
703.302,2.674
703.563,2.669
703.825,2.629
704.086,2.590
704.348,2.573
704.609,2.572
704.871,2.582
705.132,2.605
705.393,2.600
705.655,2.579
705.916,2.560
706.177,2.556
706.439,2.554
706.700,2.540
706.961,2.521
707.223,2.506
707.484,2.468
707.745,2.428
708.007,2.384
708.268,2.355
708.529,2.331
708.790,2.297
709.052,2.268
709.313,2.260
709.574,2.264
709.835,2.269
710.097,2.246
710.358,2.205
710.619,2.168
710.881,2.140
711.142,2.128
711.403,2.112
711.664,2.105
711.926,2.080
712.187,2.072
712.448,2.064
712.709,2.079
712.970,2.091
713.232,2.100
713.493,2.099
713.754,2.091
714.015,2.089
714.277,2.099
714.538,2.114
714.799,2.132
715.060,2.131
715.322,2.121
715.583,2.096
715.844,2.070
716.105,2.041
716.367,2.021
716.628,2.016
716.889,2.015
717.150,1.999
717.411,1.972
717.673,1.962
717.934,1.959
718.195,1.962
718.457,1.936
718.718,1.901
718.979,1.876
719.240,1.882
719.502,1.905
719.763,1.926
720.024,1.935
720.286,1.937
720.547,1.917
720.808,1.895
721.069,1.879
721.331,1.888
721.592,1.910
721.853,1.920
722.115,1.922
722.376,1.921
722.638,1.914
722.899,1.905
723.160,1.883
723.422,1.861
723.683,1.838
723.944,1.838
724.206,1.839
724.467,1.840
724.729,1.829
724.990,1.840
725.252,1.854
725.513,1.848
725.775,1.815
726.036,1.786
726.298,1.777
726.559,1.791
726.821,1.795
727.082,1.801
727.344,1.797
727.605,1.801
727.867,1.793
728.128,1.793
728.390,1.788
728.652,1.805
728.913,1.835
729.175,1.860
729.436,1.862
729.698,1.859
729.960,1.851
730.221,1.843
730.483,1.811
730.745,1.791
731.007,1.780
731.268,1.782
731.530,1.793
731.792,1.798
732.054,1.810
732.315,1.813
732.577,1.817
732.839,1.803
733.101,1.785
733.363,1.771
733.625,1.768
733.887,1.774
734.149,1.776
734.411,1.790
734.673,1.805
734.935,1.816
735.197,1.804
735.459,1.801
