Wavelength (nm),Intensity W23.2,,C:/Users/Brend/Desktop/LED Spectras v2/Spectrometer Data (White).sp,,,W23.2,
379.792,2.309,,2018-06-15 13:38:53,,Integration Time,169 ms,
380.000,2.308,,Analyze Light,,Number of Scans to Average,25,
380.209,2.308,,,,Smoothing,1,
380.418,2.324
380.627,2.346
380.837,2.364
381.048,2.371
381.259,2.371
381.471,2.374
381.683,2.384
381.896,2.402
382.110,2.411
382.324,2.425
382.538,2.446
382.753,2.470
382.969,2.466
383.185,2.455
383.402,2.440
383.619,2.452
383.837,2.466
384.055,2.492
384.274,2.514
384.493,2.531
384.712,2.541
384.932,2.550
385.153,2.560
385.374,2.572
385.596,2.581
385.818,2.604
386.040,2.629
386.263,2.656
386.487,2.666
386.710,2.669
386.935,2.657
387.159,2.652
387.385,2.647
387.610,2.651
387.836,2.656
388.063,2.668
388.289,2.679
388.517,2.688
388.744,2.689
388.972,2.703
389.201,2.711
389.430,2.727
389.659,2.736
389.889,2.757
390.119,2.770
390.349,2.783
390.580,2.795
390.811,2.806
391.042,2.812
391.274,2.819
391.507,2.828
391.739,2.831
391.972,2.830
392.205,2.838
392.439,2.857
392.673,2.885
392.907,2.906
393.142,2.927
393.377,2.941
393.612,2.960
393.848,2.968
394.084,2.979
394.320,2.982
394.557,2.996
394.794,3.002
395.031,3.019
395.269,3.032
395.507,3.052
395.745,3.062
395.983,3.074
396.222,3.085
396.461,3.114
396.700,3.144
396.940,3.168
397.180,3.178
397.420,3.178
397.660,3.179
397.901,3.178
398.142,3.185
398.383,3.186
398.625,3.183
398.866,3.194
399.108,3.227
399.351,3.276
399.593,3.292
399.836,3.294
400.079,3.278
400.322,3.273
400.566,3.263
400.809,3.259
401.053,3.262
401.298,3.275
401.542,3.291
401.787,3.314
402.031,3.329
402.277,3.346
402.522,3.352
402.767,3.367
403.013,3.368
403.259,3.380
403.505,3.382
403.752,3.394
403.998,3.401
404.245,3.428
404.492,3.454
404.739,3.472
404.986,3.478
405.234,3.486
405.482,3.492
405.730,3.498
405.978,3.507
406.226,3.517
406.475,3.517
406.723,3.519
406.972,3.531
407.221,3.558
407.470,3.573
407.720,3.589
407.969,3.588
408.219,3.601
408.469,3.613
408.719,3.637
408.969,3.652
409.219,3.669
409.470,3.680
409.720,3.701
409.971,3.721
410.222,3.747
410.473,3.759
410.724,3.767
410.976,3.777
411.227,3.796
411.479,3.808
411.731,3.817
411.983,3.815
412.235,3.827
412.487,3.832
412.740,3.846
412.992,3.856
413.245,3.874
413.497,3.886
413.750,3.899
414.003,3.901
414.257,3.903
414.510,3.905
414.763,3.921
415.017,3.934
415.270,3.950
415.524,3.955
415.778,3.962
416.032,3.966
416.286,3.981
416.540,3.993
416.794,4.014
417.049,4.026
417.303,4.042
417.558,4.048
417.812,4.056
418.067,4.061
418.322,4.075
418.577,4.077
418.832,4.084
419.088,4.081
419.343,4.097
419.598,4.102
419.854,4.117
420.109,4.122
420.365,4.150
420.621,4.170
420.876,4.199
421.132,4.212
421.388,4.223
421.645,4.224
421.901,4.238
422.157,4.256
422.413,4.282
422.670,4.300
422.926,4.321
423.183,4.332
423.439,4.362
423.696,4.391
423.953,4.444
424.210,4.490
424.467,4.526
424.724,4.542
424.981,4.554
425.238,4.584
425.495,4.643
425.753,4.699
426.010,4.753
426.267,4.794
426.525,4.861
426.782,4.925
427.040,4.995
427.298,5.060
427.555,5.147
427.813,5.228
428.071,5.312
428.329,5.381
428.587,5.459
428.845,5.533
429.103,5.618
429.361,5.706
429.619,5.813
429.878,5.919
430.136,6.037
430.394,6.150
430.653,6.300
430.911,6.455
431.170,6.615
431.428,6.753
431.687,6.894
431.946,7.035
432.204,7.196
432.463,7.365
432.722,7.548
432.981,7.729
433.240,7.929
433.499,8.135
433.758,8.361
434.017,8.576
434.276,8.799
434.535,9.012
434.794,9.253
435.053,9.506
435.312,9.782
435.572,10.047
435.831,10.327
436.090,10.618
436.350,10.941
436.609,11.273
436.869,11.612
437.128,11.949
437.388,12.303
437.647,12.671
437.907,13.061
438.166,13.439
438.426,13.838
438.686,14.242
438.946,14.672
439.205,15.105
439.465,15.562
439.725,16.049
439.985,16.550
440.245,17.062
440.505,17.588
440.765,18.119
441.025,18.657
441.285,19.193
441.545,19.756
441.805,20.337
442.065,20.939
442.325,21.557
442.585,22.204
442.846,22.882
443.106,23.590
443.366,24.330
443.626,25.090
443.887,25.877
444.147,26.675
444.407,27.509
444.668,28.378
444.928,29.298
445.189,30.264
445.449,31.267
445.710,32.306
445.970,33.397
446.231,34.547
446.491,35.762
446.752,37.035
447.012,38.366
447.273,39.760
447.534,41.201
447.794,42.686
448.055,44.218
448.316,45.834
448.577,47.540
448.837,49.340
449.098,51.203
449.359,53.124
449.620,55.076
449.881,57.062
450.142,59.086
450.403,61.167
450.664,63.313
450.924,65.527
451.185,67.762
451.446,70.019
451.707,72.264
451.969,74.513
452.230,76.713
452.491,78.862
452.752,80.915
453.013,82.811
453.274,84.470
453.535,85.853
453.796,86.986
454.058,87.931
454.319,88.756
454.580,89.479
454.841,90.120
455.103,90.657
455.364,91.094
455.625,91.441
455.887,91.707
456.148,91.906
456.409,92.038
456.671,92.106
456.932,92.115
457.194,92.063
457.455,91.962
457.716,91.813
457.978,91.613
458.239,91.354
458.501,91.040
458.763,90.660
459.024,90.223
459.286,89.706
459.547,89.107
459.809,88.411
460.071,87.614
460.332,86.706
460.594,85.674
460.856,84.479
461.117,83.092
461.379,81.536
461.641,79.889
461.903,78.241
462.164,76.606
462.426,75.017
462.688,73.455
462.950,71.949
463.212,70.472
463.474,69.038
463.736,67.656
463.998,66.356
464.260,65.147
464.522,64.023
464.784,62.955
465.046,61.951
465.308,61.019
465.570,60.161
465.832,59.354
466.094,58.588
466.356,57.865
466.618,57.177
466.880,56.511
467.142,55.873
467.405,55.264
467.667,54.702
467.929,54.170
468.191,53.667
468.454,53.160
468.716,52.651
468.978,52.118
469.241,51.570
469.503,51.025
469.765,50.503
470.028,49.993
470.290,49.472
470.552,48.931
470.815,48.390
471.077,47.843
471.340,47.282
471.602,46.698
471.865,46.090
472.128,45.480
472.390,44.871
472.653,44.240
472.915,43.596
473.178,42.939
473.441,42.274
473.703,41.587
473.966,40.867
474.229,40.140
474.492,39.410
474.755,38.686
475.017,37.989
475.280,37.315
475.543,36.664
475.806,35.990
476.069,35.299
476.332,34.590
476.595,33.911
476.858,33.265
477.121,32.646
477.384,32.049
477.647,31.475
477.910,30.919
478.173,30.367
478.436,29.821
478.699,29.322
478.962,28.857
479.226,28.439
479.489,28.021
479.752,27.615
480.015,27.210
480.279,26.813
480.542,26.424
480.805,26.060
481.069,25.724
481.332,25.424
481.595,25.141
481.859,24.901
482.122,24.661
482.386,24.429
482.649,24.189
482.913,23.963
483.177,23.749
483.440,23.547
483.704,23.364
483.967,23.207
484.231,23.056
484.495,22.914
484.759,22.764
485.022,22.610
485.286,22.455
485.550,22.309
485.814,22.141
486.078,21.967
486.342,21.806
486.606,21.698
486.869,21.606
487.133,21.523
487.397,21.432
487.662,21.340
487.926,21.231
488.190,21.117
488.454,20.992
488.718,20.881
488.982,20.763
489.246,20.664
489.511,20.569
489.775,20.489
490.039,20.398
490.304,20.298
490.568,20.193
490.832,20.115
491.097,20.056
491.361,20.016
491.626,19.965
491.890,19.917
492.155,19.862
492.419,19.825
492.684,19.777
492.949,19.739
493.213,19.707
493.478,19.710
493.743,19.711
494.008,19.695
494.272,19.670
494.537,19.677
494.802,19.717
495.067,19.781
495.332,19.837
495.597,19.898
495.862,19.949
496.127,20.019
496.392,20.082
496.657,20.149
496.922,20.208
497.187,20.290
497.452,20.391
497.718,20.521
497.983,20.643
498.248,20.757
498.513,20.859
498.779,20.990
499.044,21.122
499.310,21.241
499.575,21.331
499.841,21.432
500.106,21.541
500.372,21.654
500.637,21.789
500.903,21.960
501.168,22.134
501.434,22.280
501.700,22.389
501.966,22.509
502.231,22.634
502.497,22.774
502.763,22.911
503.029,23.051
503.295,23.186
503.561,23.326
503.827,23.477
504.093,23.640
504.359,23.794
504.625,23.953
504.891,24.097
505.157,24.253
505.423,24.389
505.690,24.532
505.956,24.679
506.222,24.849
506.489,25.028
506.755,25.208
507.021,25.367
507.288,25.518
507.554,25.640
507.821,25.778
508.087,25.922
508.354,26.089
508.621,26.239
508.887,26.383
509.154,26.528
509.421,26.684
509.687,26.821
509.954,26.956
510.221,27.096
510.488,27.265
510.755,27.429
511.022,27.587
511.289,27.718
511.556,27.846
511.823,27.968
512.090,28.120
512.357,28.258
512.624,28.400
512.891,28.526
513.159,28.658
513.426,28.781
513.693,28.911
513.960,29.047
514.228,29.186
514.495,29.312
514.763,29.430
515.030,29.548
515.298,29.668
515.565,29.792
515.833,29.915
516.100,30.021
516.368,30.114
516.636,30.187
516.904,30.284
517.171,30.378
517.439,30.487
517.707,30.590
517.975,30.724
518.243,30.854
518.511,30.976
518.779,31.060
519.047,31.166
519.315,31.273
519.583,31.387
519.851,31.474
520.119,31.564
520.387,31.664
520.656,31.773
520.924,31.872
521.192,31.965
521.461,32.046
521.729,32.126
521.997,32.197
522.266,32.273
522.534,32.350
522.803,32.431
523.071,32.508
523.340,32.591
523.609,32.666
523.877,32.751
524.146,32.837
524.415,32.934
524.684,33.016
524.952,33.090
525.221,33.164
525.490,33.251
525.759,33.328
526.028,33.392
526.297,33.435
526.566,33.486
526.835,33.552
527.104,33.624
527.373,33.691
527.642,33.748
527.912,33.793
528.181,33.833
528.450,33.881
528.719,33.940
528.989,34.005
529.258,34.071
529.528,34.119
529.797,34.148
530.067,34.174
530.336,34.212
530.606,34.250
530.875,34.273
531.145,34.298
531.414,34.330
531.684,34.375
531.954,34.417
532.224,34.443
532.493,34.449
532.763,34.463
533.033,34.508
533.303,34.570
533.573,34.635
533.843,34.665
534.113,34.692
534.383,34.702
534.653,34.726
534.923,34.741
535.193,34.757
535.463,34.773
535.733,34.794
536.004,34.812
536.274,34.840
536.544,34.858
536.814,34.889
537.085,34.917
537.355,34.973
537.626,35.025
537.896,35.060
538.166,35.060
538.437,35.069
538.707,35.091
538.978,35.143
539.249,35.209
539.519,35.272
539.790,35.313
540.061,35.336
540.331,35.361
540.602,35.392
540.873,35.418
541.144,35.438
541.414,35.445
541.685,35.464
541.956,35.483
542.227,35.512
542.498,35.533
542.769,35.573
543.040,35.631
543.311,35.704
543.582,35.770
543.853,35.819
544.124,35.852
544.396,35.880
544.667,35.905
544.938,35.931
545.209,35.920
545.480,35.908
545.752,35.882
546.023,35.876
546.294,35.844
546.566,35.814
546.837,35.783
547.109,35.780
547.380,35.776
547.652,35.778
547.923,35.766
548.195,35.772
548.466,35.773
548.738,35.776
549.009,35.748
549.281,35.723
549.553,35.700
549.824,35.693
550.096,35.687
550.368,35.686
550.640,35.685
550.911,35.696
551.183,35.716
551.455,35.732
551.727,35.720
551.999,35.675
552.271,35.631
552.543,35.618
552.815,35.621
553.087,35.628
553.359,35.622
553.631,35.606
553.903,35.567
554.175,35.513
554.447,35.457
554.719,35.409
554.991,35.365
555.263,35.321
555.535,35.291
555.808,35.278
556.080,35.271
556.352,35.255
556.624,35.217
556.897,35.165
557.169,35.107
557.441,35.051
557.714,34.997
557.986,34.958
558.258,34.921
558.531,34.908
558.803,34.893
559.076,34.881
559.348,34.840
559.621,34.784
559.893,34.715
560.166,34.654
560.438,34.605
560.711,34.578
560.983,34.572
561.256,34.574
561.528,34.569
561.801,34.546
562.074,34.518
562.346,34.484
562.619,34.441
562.892,34.379
563.164,34.309
563.437,34.267
563.710,34.231
563.983,34.193
564.255,34.140
564.528,34.118
564.801,34.131
565.074,34.158
565.346,34.151
565.619,34.120
565.892,34.064
566.165,33.993
566.438,33.891
566.711,33.792
566.984,33.712
567.257,33.655
567.529,33.609
567.802,33.588
568.075,33.564
568.348,33.528
568.621,33.474
568.894,33.413
569.167,33.357
569.440,33.291
569.713,33.203
569.986,33.102
570.259,32.994
570.532,32.908
570.805,32.827
571.078,32.751
571.351,32.675
571.625,32.610
571.898,32.538
572.171,32.456
572.444,32.364
572.717,32.279
572.990,32.194
573.263,32.090
573.536,31.968
573.809,31.845
574.083,31.750
574.356,31.690
574.629,31.657
574.902,31.628
575.175,31.577
575.448,31.488
575.721,31.384
575.995,31.291
576.268,31.213
576.541,31.150
576.814,31.092
577.087,31.049
577.361,31.002
577.634,30.949
577.907,30.880
578.180,30.803
578.453,30.718
578.727,30.638
579.000,30.550
579.273,30.478
579.546,30.425
579.820,30.403
580.093,30.371
580.366,30.329
580.639,30.276
580.913,30.221
581.186,30.150
581.459,30.071
581.732,29.971
582.005,29.876
582.279,29.770
582.552,29.674
582.825,29.573
583.098,29.486
583.372,29.421
583.645,29.390
583.918,29.367
584.191,29.348
584.464,29.316
584.738,29.279
585.011,29.209
585.284,29.108
585.557,28.981
585.831,28.866
586.104,28.763
586.377,28.699
586.650,28.647
586.923,28.606
587.196,28.560
587.470,28.514
587.743,28.465
588.016,28.410
588.289,28.352
588.562,28.291
588.835,28.201
589.109,28.086
589.382,27.971
589.655,27.884
589.928,27.825
590.201,27.780
590.474,27.750
590.747,27.718
591.020,27.669
591.293,27.591
591.567,27.491
591.840,27.375
592.113,27.247
592.386,27.111
592.659,26.978
592.932,26.864
593.205,26.781
593.478,26.725
593.751,26.676
594.024,26.624
594.297,26.541
594.570,26.446
594.843,26.347
595.116,26.256
595.389,26.159
595.662,26.056
595.934,25.960
596.207,25.875
596.480,25.787
596.753,25.713
597.026,25.637
597.299,25.572
597.572,25.500
597.844,25.411
598.117,25.292
598.390,25.153
598.663,25.009
598.936,24.875
599.208,24.743
599.481,24.627
599.754,24.525
600.026,24.433
600.299,24.350
600.572,24.272
600.844,24.179
601.117,24.063
601.390,23.926
601.662,23.797
601.935,23.673
602.207,23.553
602.480,23.426
602.752,23.293
603.025,23.154
603.297,23.040
603.570,22.951
603.842,22.882
604.115,22.789
604.387,22.691
604.660,22.564
604.932,22.442
605.204,22.310
605.477,22.190
605.749,22.067
606.021,21.946
606.294,21.817
606.566,21.681
606.838,21.557
607.110,21.454
607.383,21.375
607.655,21.306
607.927,21.246
608.199,21.190
608.471,21.115
608.743,21.007
609.015,20.867
609.287,20.721
609.559,20.582
609.831,20.458
610.103,20.328
610.375,20.201
610.647,20.058
610.919,19.929
611.191,19.810
611.463,19.703
611.735,19.580
612.007,19.442
612.278,19.304
612.550,19.187
612.822,19.074
613.094,18.966
613.365,18.829
613.637,18.705
613.909,18.568
614.180,18.451
614.452,18.316
614.723,18.188
614.995,18.064
615.266,17.962
615.538,17.875
615.809,17.789
616.081,17.682
616.352,17.564
616.623,17.436
616.895,17.305
617.166,17.157
617.437,17.014
617.709,16.889
617.980,16.799
618.251,16.724
618.522,16.664
618.793,16.605
619.065,16.558
619.336,16.483
619.607,16.389
619.878,16.274
620.149,16.169
620.420,16.053
620.691,15.932
620.962,15.818
621.232,15.732
621.503,15.633
621.774,15.537
622.045,15.435
622.316,15.374
622.586,15.304
622.857,15.241
623.128,15.156
623.398,15.076
623.669,14.975
623.940,14.871
624.210,14.753
624.481,14.663
624.751,14.571
625.021,14.498
625.292,14.417
625.562,14.364
625.833,14.301
626.103,14.245
626.373,14.177
626.643,14.111
626.914,14.021
627.184,13.930
627.454,13.838
627.724,13.761
627.994,13.682
628.264,13.601
628.534,13.509
628.804,13.425
629.074,13.355
629.344,13.305
629.614,13.258
629.884,13.210
630.154,13.155
630.424,13.089
630.693,13.015
630.963,12.932
631.233,12.849
631.502,12.776
631.772,12.713
632.041,12.644
632.311,12.550
632.581,12.451
632.850,12.355
633.119,12.269
633.389,12.193
633.658,12.133
633.928,12.097
634.197,12.071
634.466,12.043
634.735,12.007
635.004,11.946
635.274,11.874
635.543,11.791
635.812,11.716
636.081,11.650
636.350,11.593
636.619,11.536
636.888,11.475
637.157,11.411
637.426,11.358
637.694,11.306
637.963,11.247
638.232,11.188
638.501,11.132
638.769,11.085
639.038,11.033
639.307,10.979
639.575,10.918
639.844,10.836
640.112,10.750
640.381,10.663
640.649,10.596
640.917,10.535
641.186,10.479
641.454,10.428
641.722,10.373
641.991,10.318
642.259,10.251
642.527,10.183
642.795,10.120
643.063,10.054
643.331,10.001
643.599,9.954
643.867,9.934
644.135,9.906
644.403,9.877
644.671,9.821
644.939,9.766
645.206,9.701
645.474,9.644
645.742,9.576
646.009,9.503
646.277,9.438
646.545,9.377
646.812,9.331
647.080,9.289
647.347,9.247
647.615,9.191
647.882,9.115
648.149,9.038
648.417,8.969
648.684,8.912
648.951,8.862
649.219,8.824
649.486,8.783
649.753,8.737
650.020,8.671
650.287,8.601
650.554,8.522
650.821,8.449
651.088,8.377
651.355,8.326
651.622,8.274
651.889,8.232
652.155,8.178
652.422,8.133
652.689,8.091
652.956,8.051
653.222,8.009
653.489,7.973
653.755,7.922
654.022,7.852
654.288,7.755
654.555,7.672
654.821,7.604
655.088,7.556
655.354,7.507
655.620,7.463
655.887,7.411
656.153,7.361
656.419,7.306
656.685,7.259
656.951,7.212
657.217,7.165
657.483,7.118
657.749,7.070
658.015,7.031
658.281,6.983
658.547,6.920
658.813,6.846
659.079,6.772
659.345,6.707
659.610,6.654
659.876,6.608
660.142,6.568
660.407,6.525
660.673,6.484
660.939,6.450
661.204,6.407
661.470,6.356
661.735,6.303
662.000,6.265
662.266,6.219
662.531,6.165
662.796,6.108
663.062,6.063
663.327,6.018
663.592,5.981
663.857,5.939
664.122,5.900
664.388,5.851
664.653,5.808
664.918,5.773
665.183,5.737
665.448,5.705
665.712,5.676
665.977,5.653
666.242,5.620
666.507,5.554
666.772,5.493
667.037,5.439
667.301,5.412
667.566,5.375
667.831,5.337
668.095,5.291
668.360,5.255
668.624,5.206
668.889,5.172
669.153,5.138
669.418,5.122
669.682,5.097
669.946,5.070
670.211,5.047
670.475,5.020
670.739,4.994
671.004,4.969
671.268,4.961
671.532,4.960
671.796,4.910
672.060,4.847
672.324,4.775
672.588,4.747
672.852,4.727
673.116,4.736
673.380,4.750
673.644,4.700
673.908,4.610
674.172,4.513
674.436,4.479
674.700,4.458
674.963,4.438
675.227,4.411
675.491,4.366
675.754,4.324
676.018,4.281
676.282,4.258
676.545,4.226
676.809,4.192
677.072,4.155
677.336,4.123
677.599,4.104
677.863,4.084
678.126,4.062
678.389,4.043
678.653,4.023
678.916,3.997
679.179,3.952
679.442,3.912
679.706,3.887
679.969,3.869
680.232,3.848
680.495,3.825
680.758,3.801
681.021,3.768
681.284,3.723
681.547,3.684
681.810,3.665
682.073,3.663
682.336,3.657
682.599,3.639
682.862,3.614
683.125,3.599
683.388,3.593
683.651,3.583
683.913,3.565
684.176,3.529
684.439,3.486
684.702,3.439
684.964,3.405
685.227,3.385
685.490,3.377
685.752,3.378
686.015,3.366
686.277,3.341
686.540,3.308
686.802,3.274
687.065,3.247
687.327,3.226
687.590,3.211
687.852,3.192
688.115,3.158
688.377,3.127
688.639,3.101
688.902,3.085
689.164,3.077
689.426,3.079
689.689,3.076
689.951,3.056
690.213,3.025
690.475,2.999
690.737,2.980
691.000,2.960
691.262,2.940
691.524,2.925
691.786,2.919
692.048,2.918
692.310,2.909
692.572,2.885
692.834,2.852
693.096,2.825
693.358,2.812
693.620,2.815
693.882,2.815
694.144,2.806
694.406,2.779
694.668,2.750
694.930,2.720
695.192,2.696
695.453,2.681
695.715,2.674
695.977,2.667
696.239,2.650
696.501,2.633
696.762,2.627
697.024,2.621
697.286,2.604
697.548,2.580
697.809,2.561
698.071,2.546
698.333,2.529
698.594,2.510
698.856,2.501
699.118,2.490
699.379,2.478
699.641,2.464
699.902,2.455
700.164,2.445
700.426,2.432
700.687,2.413
700.949,2.403
701.210,2.394
701.472,2.381
701.733,2.358
701.995,2.341
702.256,2.330
702.518,2.323
702.779,2.310
703.041,2.312
703.302,2.320
703.563,2.313
703.825,2.292
704.086,2.272
704.348,2.264
704.609,2.260
704.871,2.258
705.132,2.258
705.393,2.248
705.655,2.236
705.916,2.227
706.177,2.223
706.439,2.215
706.700,2.205
706.961,2.192
707.223,2.180
707.484,2.151
707.745,2.125
708.007,2.098
708.268,2.080
708.529,2.059
708.790,2.030
709.052,2.009
709.313,2.000
709.574,1.999
709.835,1.993
710.097,1.976
710.358,1.945
710.619,1.915
710.881,1.891
711.142,1.880
711.403,1.868
711.664,1.860
711.926,1.846
712.187,1.840
712.448,1.836
712.709,1.839
712.970,1.841
713.232,1.840
713.493,1.835
713.754,1.828
714.015,1.823
714.277,1.826
714.538,1.831
714.799,1.843
715.060,1.846
715.322,1.842
715.583,1.826
715.844,1.807
716.105,1.788
716.367,1.776
716.628,1.773
716.889,1.771
717.150,1.756
717.411,1.733
717.673,1.715
717.934,1.705
718.195,1.699
718.457,1.685
718.718,1.668
718.979,1.657
719.240,1.660
719.502,1.670
719.763,1.676
720.024,1.675
720.286,1.669
720.547,1.657
720.808,1.645
721.069,1.636
721.331,1.639
721.592,1.649
721.853,1.652
722.115,1.651
722.376,1.650
722.638,1.647
722.899,1.644
723.160,1.632
723.422,1.621
723.683,1.610
723.944,1.607
724.206,1.607
724.467,1.604
724.729,1.601
724.990,1.607
725.252,1.613
725.513,1.601
725.775,1.575
726.036,1.557
726.298,1.555
726.559,1.569
726.821,1.577
727.082,1.581
727.344,1.576
727.605,1.566
727.867,1.552
728.128,1.550
728.390,1.555
728.652,1.573
728.913,1.590
729.175,1.601
729.436,1.600
729.698,1.597
729.960,1.590
730.221,1.578
730.483,1.559
730.745,1.551
731.007,1.550
731.268,1.549
731.530,1.551
731.792,1.552
732.054,1.556
732.315,1.557
732.577,1.562
732.839,1.554
733.101,1.538
733.363,1.523
733.625,1.524
733.887,1.531
734.149,1.537
734.411,1.546
734.673,1.550
734.935,1.554
735.197,1.550
735.459,1.557
735.721,1.564
735.983,1.560
