Wavelength (nm),Intensity W20.1,,C:/Users/Brend/Desktop/LED Spectras v2/Spectrometer Data (White).sp,,,W20.1,
379.792,2.284,,2018-06-15 13:02:03,,Integration Time,165 ms,
380.000,2.281,,Analyze Light,,Number of Scans to Average,25,
380.209,2.277,,,,Smoothing,1,
380.418,2.288
380.627,2.307
380.837,2.327
381.048,2.338
381.259,2.341
381.471,2.338
381.683,2.345
381.896,2.362
382.110,2.373
382.324,2.389
382.538,2.406
382.753,2.424
382.969,2.420
383.185,2.409
383.402,2.402
383.619,2.419
383.837,2.438
384.055,2.465
384.274,2.484
384.493,2.501
384.712,2.507
384.932,2.511
385.153,2.517
385.374,2.529
385.596,2.544
385.818,2.565
386.040,2.585
386.263,2.606
386.487,2.613
386.710,2.612
386.935,2.598
387.159,2.596
387.385,2.595
387.610,2.601
387.836,2.607
388.063,2.621
388.289,2.637
388.517,2.648
388.744,2.650
388.972,2.664
389.201,2.675
389.430,2.692
389.659,2.702
389.889,2.721
390.119,2.734
390.349,2.745
390.580,2.753
390.811,2.759
391.042,2.762
391.274,2.769
391.507,2.778
391.739,2.783
391.972,2.782
392.205,2.790
392.439,2.808
392.673,2.835
392.907,2.856
393.142,2.878
393.377,2.895
393.612,2.916
393.848,2.925
394.084,2.931
394.320,2.931
394.557,2.944
394.794,2.955
395.031,2.972
395.269,2.982
395.507,2.999
395.745,3.007
395.983,3.019
396.222,3.033
396.461,3.059
396.700,3.087
396.940,3.106
397.180,3.109
397.420,3.103
397.660,3.098
397.901,3.100
398.142,3.112
398.383,3.122
398.625,3.126
398.866,3.140
399.108,3.166
399.351,3.209
399.593,3.222
399.836,3.225
400.079,3.211
400.322,3.207
400.566,3.200
400.809,3.203
401.053,3.215
401.298,3.231
401.542,3.247
401.787,3.266
402.031,3.285
402.277,3.305
402.522,3.310
402.767,3.318
403.013,3.312
403.259,3.319
403.505,3.318
403.752,3.327
403.998,3.330
404.245,3.353
404.492,3.373
404.739,3.390
404.986,3.395
405.234,3.407
405.482,3.418
405.730,3.425
405.978,3.431
406.226,3.436
406.475,3.437
406.723,3.442
406.972,3.459
407.221,3.487
407.470,3.507
407.720,3.522
407.969,3.519
408.219,3.528
408.469,3.536
408.719,3.557
408.969,3.570
409.219,3.588
409.470,3.604
409.720,3.626
409.971,3.641
410.222,3.665
410.473,3.670
410.724,3.672
410.976,3.676
411.227,3.699
411.479,3.716
411.731,3.731
411.983,3.729
412.235,3.736
412.487,3.732
412.740,3.740
412.992,3.748
413.245,3.771
413.497,3.782
413.750,3.789
414.003,3.782
414.257,3.783
414.510,3.786
414.763,3.808
415.017,3.826
415.270,3.841
415.524,3.842
415.778,3.847
416.032,3.855
416.286,3.881
416.540,3.896
416.794,3.915
417.049,3.913
417.303,3.922
417.558,3.929
417.812,3.945
418.067,3.954
418.322,3.967
418.577,3.973
418.832,3.978
419.088,3.968
419.343,3.979
419.598,3.980
419.854,3.998
420.109,4.006
420.365,4.033
420.621,4.050
420.876,4.073
421.132,4.085
421.388,4.099
421.645,4.104
421.901,4.123
422.157,4.148
422.413,4.184
422.670,4.206
422.926,4.227
423.183,4.232
423.439,4.263
423.696,4.300
423.953,4.372
424.210,4.434
424.467,4.478
424.724,4.493
424.981,4.511
425.238,4.546
425.495,4.611
425.753,4.673
426.010,4.743
426.267,4.797
426.525,4.869
426.782,4.935
427.040,5.012
427.298,5.088
427.555,5.179
427.813,5.263
428.071,5.348
428.329,5.428
428.587,5.521
428.845,5.621
429.103,5.733
429.361,5.839
429.619,5.951
429.878,6.067
430.136,6.203
430.394,6.337
430.653,6.495
430.911,6.664
431.170,6.847
431.428,7.007
431.687,7.164
431.946,7.315
432.204,7.489
432.463,7.681
432.722,7.887
432.981,8.088
433.240,8.299
433.499,8.523
433.758,8.777
434.017,9.018
434.276,9.271
434.535,9.513
434.794,9.777
435.053,10.046
435.312,10.339
435.572,10.639
435.831,10.967
436.090,11.306
436.350,11.660
436.609,12.012
436.869,12.382
437.128,12.760
437.388,13.148
437.647,13.537
437.907,13.953
438.166,14.374
438.426,14.799
438.686,15.227
438.946,15.682
439.205,16.167
439.465,16.680
439.725,17.214
439.985,17.760
440.245,18.300
440.505,18.843
440.765,19.391
441.025,19.960
441.285,20.551
441.545,21.163
441.805,21.791
442.065,22.434
442.325,23.105
442.585,23.811
442.846,24.563
443.106,25.356
443.366,26.192
443.626,27.050
443.887,27.942
444.147,28.851
444.407,29.796
444.668,30.796
444.928,31.852
445.189,32.972
445.449,34.131
445.710,35.338
445.970,36.596
446.231,37.918
446.491,39.310
446.752,40.764
447.012,42.276
447.273,43.864
447.534,45.512
447.794,47.212
448.055,48.951
448.316,50.781
448.577,52.717
448.837,54.734
449.098,56.794
449.359,58.878
449.620,60.969
449.881,63.081
450.142,65.235
450.403,67.453
450.664,69.717
450.924,71.985
451.185,74.223
451.446,76.429
451.707,78.577
451.969,80.670
452.230,82.611
452.491,84.319
452.752,85.727
453.013,86.877
453.274,87.843
453.535,88.700
453.796,89.442
454.058,90.088
454.319,90.620
454.580,91.062
454.841,91.412
455.103,91.676
455.364,91.867
455.625,91.994
455.887,92.068
456.148,92.091
456.409,92.062
456.671,91.972
456.932,91.820
457.194,91.605
457.455,91.336
457.716,91.009
457.978,90.622
458.239,90.170
458.501,89.655
458.763,89.070
459.024,88.403
459.286,87.648
459.547,86.798
459.809,85.811
460.071,84.654
460.332,83.314
460.594,81.819
460.856,80.256
461.117,78.655
461.379,77.070
461.641,75.503
461.903,73.977
462.164,72.496
462.426,71.070
462.688,69.703
462.950,68.401
463.212,67.150
463.474,65.938
463.736,64.762
463.998,63.667
464.260,62.650
464.522,61.708
464.784,60.802
465.046,59.941
465.308,59.144
465.570,58.404
465.832,57.731
466.094,57.088
466.356,56.448
466.618,55.809
466.880,55.159
467.142,54.529
467.405,53.911
467.667,53.334
467.929,52.786
468.191,52.239
468.454,51.668
468.716,51.089
468.978,50.490
469.241,49.877
469.503,49.258
469.765,48.656
470.028,48.078
470.290,47.484
470.552,46.872
470.815,46.231
471.077,45.569
471.340,44.909
471.602,44.246
471.865,43.590
472.128,42.916
472.390,42.249
472.653,41.586
472.915,40.919
473.178,40.254
473.441,39.568
473.703,38.876
473.966,38.165
474.229,37.457
474.492,36.764
474.755,36.073
475.017,35.420
475.280,34.768
475.543,34.152
475.806,33.509
476.069,32.871
476.332,32.233
476.595,31.628
476.858,31.052
477.121,30.493
477.384,29.945
477.647,29.429
477.910,28.949
478.173,28.495
478.436,28.049
478.699,27.628
478.962,27.228
479.226,26.859
479.489,26.488
479.752,26.135
480.015,25.782
480.279,25.451
480.542,25.124
480.805,24.810
481.069,24.492
481.332,24.203
481.595,23.935
481.859,23.715
482.122,23.489
482.386,23.268
482.649,23.033
482.913,22.820
483.177,22.612
483.440,22.411
483.704,22.220
483.967,22.058
484.231,21.905
484.495,21.765
484.759,21.616
485.022,21.461
485.286,21.296
485.550,21.131
485.814,20.960
486.078,20.803
486.342,20.652
486.606,20.531
486.869,20.407
487.133,20.291
487.397,20.184
487.662,20.083
487.926,19.977
488.190,19.873
488.454,19.768
488.718,19.671
488.982,19.562
489.246,19.473
489.511,19.380
489.775,19.297
490.039,19.208
490.304,19.130
490.568,19.048
490.832,18.984
491.097,18.938
491.361,18.915
491.626,18.883
491.890,18.842
492.155,18.796
492.419,18.766
492.684,18.738
492.949,18.726
493.213,18.730
493.478,18.760
493.743,18.773
494.008,18.765
494.272,18.759
494.537,18.795
494.802,18.857
495.067,18.933
495.332,19.002
495.597,19.077
495.862,19.141
496.127,19.209
496.392,19.267
496.657,19.330
496.922,19.391
497.187,19.485
497.452,19.595
497.718,19.730
497.983,19.849
498.248,19.967
498.513,20.076
498.779,20.214
499.044,20.343
499.310,20.454
499.575,20.542
499.841,20.655
500.106,20.785
500.372,20.924
500.637,21.059
500.903,21.214
501.168,21.358
501.434,21.494
501.700,21.609
501.966,21.752
502.231,21.897
502.497,22.046
502.763,22.170
503.029,22.293
503.295,22.425
503.561,22.579
503.827,22.740
504.093,22.899
504.359,23.052
504.625,23.220
504.891,23.384
505.157,23.550
505.423,23.686
505.690,23.823
505.956,23.963
506.222,24.124
506.489,24.298
506.755,24.479
507.021,24.637
507.288,24.789
507.554,24.929
507.821,25.087
508.087,25.249
508.354,25.428
508.621,25.591
508.887,25.735
509.154,25.865
509.421,26.007
509.687,26.143
509.954,26.279
510.221,26.419
510.488,26.586
510.755,26.755
511.022,26.924
511.289,27.067
511.556,27.210
511.823,27.331
512.090,27.467
512.357,27.586
512.624,27.716
512.891,27.839
513.159,27.976
513.426,28.114
513.693,28.253
513.960,28.384
514.228,28.514
514.495,28.640
514.763,28.765
515.030,28.881
515.298,29.001
515.565,29.134
515.833,29.273
516.100,29.395
516.368,29.501
516.636,29.593
516.904,29.706
517.171,29.815
517.439,29.933
517.707,30.036
517.975,30.159
518.243,30.284
518.511,30.406
518.779,30.491
519.047,30.580
519.315,30.668
519.583,30.758
519.851,30.830
520.119,30.903
520.387,30.987
520.656,31.080
520.924,31.179
521.192,31.280
521.461,31.376
521.729,31.468
521.997,31.553
522.266,31.626
522.534,31.691
522.803,31.766
523.071,31.846
523.340,31.933
523.609,32.017
523.877,32.105
524.146,32.193
524.415,32.278
524.684,32.359
524.952,32.438
525.221,32.514
525.490,32.605
525.759,32.677
526.028,32.750
526.297,32.792
526.566,32.853
526.835,32.925
527.104,33.015
527.373,33.105
527.642,33.176
527.912,33.229
528.181,33.274
528.450,33.334
528.719,33.403
528.989,33.475
529.258,33.533
529.528,33.575
529.797,33.592
530.067,33.608
530.336,33.631
530.606,33.657
530.875,33.680
531.145,33.702
531.414,33.733
531.684,33.783
531.954,33.831
532.224,33.868
532.493,33.883
532.763,33.898
533.033,33.927
533.303,33.959
533.573,34.000
533.843,34.018
534.113,34.044
534.383,34.063
534.653,34.094
534.923,34.114
535.193,34.135
535.463,34.163
535.733,34.188
536.004,34.208
536.274,34.216
536.544,34.230
536.814,34.254
537.085,34.299
537.355,34.368
537.626,34.430
537.896,34.466
538.166,34.475
538.437,34.494
538.707,34.529
538.978,34.591
539.249,34.664
539.519,34.742
539.790,34.795
540.061,34.829
540.331,34.852
540.602,34.861
540.873,34.855
541.144,34.863
541.414,34.885
541.685,34.925
541.956,34.950
542.227,34.975
542.498,35.001
542.769,35.038
543.040,35.080
543.311,35.138
543.582,35.208
543.853,35.283
544.124,35.341
544.396,35.371
544.667,35.383
544.938,35.400
545.209,35.390
545.480,35.377
545.752,35.342
546.023,35.330
546.294,35.306
546.566,35.291
546.837,35.282
547.109,35.284
547.380,35.282
547.652,35.287
547.923,35.298
548.195,35.320
548.466,35.324
548.738,35.322
549.009,35.301
549.281,35.275
549.553,35.238
549.824,35.209
550.096,35.190
550.368,35.184
550.640,35.182
550.911,35.187
551.183,35.201
551.455,35.216
551.727,35.213
551.999,35.171
552.271,35.116
552.543,35.082
552.815,35.078
553.087,35.102
553.359,35.117
553.631,35.114
553.903,35.074
554.175,35.020
554.447,34.969
554.719,34.911
554.991,34.858
555.263,34.814
555.535,34.781
555.808,34.756
556.080,34.733
556.352,34.722
556.624,34.692
556.897,34.644
557.169,34.581
557.441,34.525
557.714,34.466
557.986,34.430
558.258,34.401
558.531,34.403
558.803,34.405
559.076,34.400
559.348,34.361
559.621,34.288
559.893,34.222
560.166,34.169
560.438,34.126
560.711,34.092
560.983,34.078
561.256,34.082
561.528,34.071
561.801,34.044
562.074,34.005
562.346,33.969
562.619,33.920
562.892,33.861
563.164,33.784
563.437,33.733
563.710,33.687
563.983,33.649
564.255,33.607
564.528,33.602
564.801,33.621
565.074,33.645
565.346,33.637
565.619,33.622
565.892,33.585
566.165,33.523
566.438,33.434
566.711,33.343
566.984,33.265
567.257,33.207
567.529,33.163
567.802,33.152
568.075,33.132
568.348,33.101
568.621,33.054
568.894,32.999
569.167,32.926
569.440,32.843
569.713,32.741
569.986,32.643
570.259,32.527
570.532,32.434
570.805,32.345
571.078,32.273
571.351,32.211
571.625,32.164
571.898,32.117
572.171,32.049
572.444,31.960
572.717,31.867
572.990,31.771
573.263,31.667
573.536,31.548
573.809,31.429
574.083,31.327
574.356,31.267
574.629,31.238
574.902,31.212
575.175,31.160
575.448,31.074
575.721,30.974
575.995,30.875
576.268,30.795
576.541,30.748
576.814,30.713
577.087,30.686
577.361,30.647
577.634,30.607
577.907,30.544
578.180,30.463
578.453,30.370
578.727,30.286
579.000,30.196
579.273,30.126
579.546,30.073
579.820,30.042
580.093,30.002
580.366,29.956
580.639,29.903
580.913,29.854
581.186,29.787
581.459,29.707
581.732,29.599
582.005,29.493
582.279,29.375
582.552,29.271
582.825,29.175
583.098,29.102
583.372,29.044
583.645,29.007
583.918,28.982
584.191,28.961
584.464,28.932
584.738,28.891
585.011,28.821
585.284,28.730
585.557,28.620
585.831,28.519
586.104,28.424
586.377,28.360
586.650,28.302
586.923,28.254
587.196,28.206
587.470,28.164
587.743,28.122
588.016,28.070
588.289,28.006
588.562,27.932
588.835,27.830
589.109,27.717
589.382,27.610
589.655,27.529
589.928,27.458
590.201,27.400
590.474,27.356
590.747,27.324
591.020,27.275
591.293,27.200
591.567,27.114
591.840,27.026
592.113,26.926
592.386,26.812
592.659,26.683
592.932,26.574
593.205,26.488
593.478,26.431
593.751,26.380
594.024,26.338
594.297,26.286
594.570,26.224
594.843,26.152
595.116,26.072
595.389,25.986
595.662,25.879
595.934,25.763
596.207,25.652
596.480,25.555
596.753,25.477
597.026,25.397
597.299,25.324
597.572,25.238
597.844,25.148
598.117,25.023
598.390,24.882
598.663,24.722
598.936,24.580
599.208,24.446
599.481,24.339
599.754,24.251
600.026,24.168
600.299,24.088
600.572,24.005
600.844,23.911
601.117,23.798
601.390,23.676
601.662,23.562
601.935,23.431
602.207,23.284
602.480,23.135
602.752,23.004
603.025,22.872
603.297,22.756
603.570,22.666
603.842,22.611
604.115,22.544
604.387,22.469
604.660,22.359
604.932,22.247
605.204,22.121
605.477,21.992
605.749,21.858
606.021,21.727
606.294,21.601
606.566,21.474
606.838,21.360
607.110,21.266
607.383,21.193
607.655,21.127
607.927,21.064
608.199,21.001
608.471,20.912
608.743,20.796
609.015,20.654
609.287,20.518
609.559,20.383
609.831,20.261
610.103,20.129
610.375,20.009
610.647,19.881
610.919,19.755
611.191,19.621
611.463,19.499
611.735,19.377
612.007,19.253
612.278,19.124
612.550,19.003
612.822,18.890
613.094,18.782
613.365,18.654
613.637,18.529
613.909,18.396
614.180,18.279
614.452,18.151
614.723,18.025
614.995,17.900
615.266,17.793
615.538,17.708
615.809,17.630
616.081,17.532
616.352,17.413
616.623,17.272
616.895,17.138
617.166,17.002
617.437,16.884
617.709,16.773
617.980,16.675
618.251,16.585
618.522,16.510
618.793,16.453
619.065,16.408
619.336,16.333
619.607,16.240
619.878,16.133
620.149,16.035
620.420,15.915
620.691,15.790
620.962,15.672
621.232,15.584
621.503,15.486
621.774,15.400
622.045,15.311
622.316,15.262
622.586,15.206
622.857,15.154
623.128,15.070
623.398,14.983
623.669,14.880
623.940,14.775
624.210,14.660
624.481,14.566
624.751,14.474
625.021,14.395
625.292,14.309
625.562,14.250
625.833,14.194
626.103,14.145
626.373,14.071
626.643,13.993
626.914,13.902
627.184,13.819
627.454,13.733
627.724,13.654
627.994,13.570
628.264,13.486
628.534,13.397
628.804,13.320
629.074,13.256
629.344,13.199
629.614,13.142
629.884,13.083
630.154,13.029
630.424,12.974
630.693,12.914
630.963,12.848
631.233,12.772
631.502,12.693
631.772,12.612
632.041,12.526
632.311,12.430
632.581,12.333
632.850,12.243
633.119,12.162
633.389,12.089
633.658,12.035
633.928,11.999
634.197,11.978
634.466,11.950
634.735,11.913
635.004,11.849
635.274,11.775
635.543,11.695
635.812,11.625
636.081,11.563
636.350,11.513
636.619,11.458
636.888,11.398
637.157,11.332
637.426,11.280
637.694,11.228
637.963,11.171
638.232,11.112
638.501,11.057
638.769,11.005
639.038,10.942
639.307,10.875
639.575,10.807
639.844,10.723
640.112,10.638
640.381,10.552
640.649,10.496
640.917,10.451
641.186,10.403
641.454,10.344
641.722,10.276
641.991,10.211
642.259,10.138
642.527,10.070
642.795,10.014
643.063,9.959
643.331,9.912
643.599,9.868
643.867,9.845
644.135,9.818
644.403,9.783
644.671,9.730
644.939,9.680
645.206,9.631
645.474,9.592
645.742,9.541
646.009,9.477
646.277,9.408
646.545,9.335
646.812,9.283
647.080,9.238
647.347,9.188
647.615,9.120
647.882,9.033
648.149,8.958
648.417,8.888
648.684,8.833
648.951,8.785
649.219,8.747
649.486,8.704
649.753,8.658
650.020,8.596
650.287,8.529
650.554,8.457
650.821,8.387
651.088,8.311
651.355,8.248
651.622,8.194
651.889,8.156
652.155,8.111
652.422,8.072
652.689,8.036
652.956,7.996
653.222,7.953
653.489,7.914
653.755,7.864
654.022,7.789
654.288,7.693
654.555,7.615
654.821,7.559
655.088,7.514
655.354,7.462
655.620,7.415
655.887,7.364
656.153,7.317
656.419,7.263
656.685,7.211
656.951,7.158
657.217,7.106
657.483,7.053
657.749,6.996
658.015,6.941
658.281,6.892
658.547,6.836
658.813,6.782
659.079,6.722
659.345,6.664
659.610,6.602
659.876,6.547
660.142,6.497
660.407,6.448
660.673,6.399
660.939,6.365
661.204,6.326
661.470,6.290
661.735,6.244
662.000,6.208
662.266,6.164
662.531,6.115
662.796,6.064
663.062,6.016
663.327,5.965
663.592,5.922
663.857,5.885
664.122,5.856
664.388,5.817
664.653,5.774
664.918,5.731
665.183,5.692
665.448,5.658
665.712,5.626
665.977,5.592
666.242,5.554
666.507,5.495
666.772,5.436
667.037,5.375
667.301,5.338
667.566,5.298
667.831,5.268
668.095,5.228
668.360,5.192
668.624,5.143
668.889,5.117
669.153,5.088
669.418,5.067
669.682,5.037
669.946,5.015
670.211,5.002
670.475,4.983
670.739,4.963
671.004,4.939
671.268,4.924
671.532,4.914
671.796,4.857
672.060,4.791
672.324,4.714
672.588,4.685
672.852,4.668
673.116,4.687
673.380,4.707
673.644,4.662
673.908,4.575
674.172,4.482
674.436,4.448
674.700,4.432
674.963,4.415
675.227,4.390
675.491,4.344
675.754,4.302
676.018,4.265
676.282,4.242
676.545,4.205
676.809,4.157
677.072,4.103
677.336,4.060
677.599,4.034
677.863,4.013
678.126,3.997
678.389,3.988
678.653,3.976
678.916,3.958
679.179,3.919
679.442,3.886
679.706,3.859
679.969,3.837
680.232,3.811
680.495,3.791
680.758,3.774
681.021,3.748
681.284,3.710
681.547,3.672
681.810,3.650
682.073,3.645
682.336,3.639
682.599,3.623
682.862,3.600
683.125,3.586
683.388,3.578
683.651,3.564
683.913,3.546
684.176,3.511
684.439,3.468
684.702,3.422
684.964,3.389
685.227,3.370
685.490,3.360
685.752,3.352
686.015,3.331
686.277,3.300
686.540,3.263
686.802,3.227
687.065,3.204
687.327,3.190
687.590,3.179
687.852,3.156
688.115,3.126
688.377,3.106
688.639,3.095
688.902,3.084
689.164,3.065
689.426,3.048
689.689,3.034
689.951,3.015
690.213,2.989
690.475,2.963
690.737,2.938
691.000,2.911
691.262,2.889
691.524,2.875
691.786,2.873
692.048,2.872
692.310,2.860
692.572,2.833
692.834,2.800
693.096,2.778
693.358,2.773
693.620,2.779
693.882,2.782
694.144,2.772
694.406,2.746
694.668,2.721
694.930,2.700
695.192,2.681
695.453,2.661
695.715,2.644
695.977,2.626
696.239,2.608
696.501,2.595
696.762,2.595
697.024,2.592
697.286,2.575
697.548,2.551
697.809,2.531
698.071,2.516
698.333,2.502
698.594,2.486
698.856,2.477
699.118,2.468
699.379,2.460
699.641,2.450
699.902,2.442
700.164,2.425
700.426,2.403
700.687,2.376
700.949,2.360
701.210,2.352
701.472,2.348
701.733,2.331
701.995,2.319
702.256,2.308
702.518,2.303
702.779,2.289
703.041,2.290
703.302,2.295
703.563,2.291
703.825,2.270
704.086,2.245
704.348,2.226
704.609,2.215
704.871,2.214
705.132,2.218
705.393,2.210
705.655,2.199
705.916,2.193
706.177,2.192
706.439,2.187
706.700,2.176
706.961,2.162
707.223,2.151
707.484,2.130
707.745,2.108
708.007,2.084
708.268,2.060
708.529,2.037
708.790,2.007
709.052,1.985
709.313,1.972
709.574,1.969
709.835,1.968
710.097,1.953
710.358,1.925
710.619,1.900
710.881,1.883
711.142,1.873
711.403,1.858
711.664,1.848
711.926,1.832
712.187,1.823
712.448,1.813
712.709,1.813
712.970,1.814
713.232,1.815
713.493,1.812
713.754,1.805
714.015,1.798
714.277,1.797
714.538,1.801
714.799,1.813
715.060,1.818
715.322,1.815
715.583,1.799
715.844,1.781
716.105,1.762
716.367,1.750
716.628,1.745
716.889,1.741
717.150,1.725
717.411,1.703
717.673,1.692
717.934,1.693
718.195,1.695
718.457,1.684
718.718,1.665
718.979,1.653
719.240,1.653
719.502,1.658
719.763,1.664
720.024,1.665
720.286,1.663
720.547,1.649
720.808,1.633
721.069,1.624
721.331,1.627
721.592,1.635
721.853,1.634
722.115,1.630
722.376,1.626
722.638,1.622
722.899,1.617
723.160,1.605
723.422,1.593
723.683,1.582
723.944,1.582
724.206,1.582
724.467,1.581
724.729,1.577
724.990,1.587
725.252,1.597
725.513,1.588
725.775,1.559
726.036,1.538
726.298,1.537
726.559,1.554
726.821,1.561
727.082,1.561
727.344,1.547
727.605,1.535
727.867,1.522
728.128,1.524
728.390,1.525
728.652,1.538
728.913,1.552
729.175,1.566
729.436,1.567
729.698,1.566
729.960,1.559
730.221,1.551
730.483,1.527
730.745,1.517
731.007,1.512
731.268,1.515
731.530,1.518
731.792,1.522
732.054,1.531
732.315,1.539
732.577,1.542
732.839,1.532
733.101,1.512
733.363,1.498
733.625,1.495
733.887,1.498
734.149,1.498
734.411,1.503
734.673,1.511
734.935,1.516
735.197,1.510
735.459,1.511
735.721,1.515
735.983,1.517
