Wavelength (nm),Intensity W9.3,,C:/Users/Brend/Desktop/LED Spectras v2/Spectrometer Data (White).sp,,,W9.3,
379.792,2.135,,2018-06-15 11:03:01,,Integration Time,157 ms,
380.000,2.131,,Analyze Light,,Number of Scans to Average,25,
380.209,2.130,,,,Smoothing,1,
380.418,2.146
380.627,2.165
380.837,2.180
381.048,2.185
381.259,2.186
381.471,2.184
381.683,2.189
381.896,2.199
382.110,2.206
382.324,2.222
382.538,2.242
382.753,2.259
382.969,2.252
383.185,2.242
383.402,2.240
383.619,2.256
383.837,2.274
384.055,2.295
384.274,2.315
384.493,2.326
384.712,2.330
384.932,2.336
385.153,2.346
385.374,2.360
385.596,2.372
385.818,2.392
386.040,2.412
386.263,2.435
386.487,2.439
386.710,2.436
386.935,2.423
387.159,2.420
387.385,2.418
387.610,2.423
387.836,2.430
388.063,2.442
388.289,2.453
388.517,2.463
388.744,2.465
388.972,2.477
389.201,2.488
389.430,2.505
389.659,2.515
389.889,2.526
390.119,2.533
390.349,2.539
390.580,2.549
390.811,2.561
391.042,2.568
391.274,2.575
391.507,2.581
391.739,2.588
391.972,2.586
392.205,2.589
392.439,2.599
392.673,2.617
392.907,2.632
393.142,2.651
393.377,2.666
393.612,2.685
393.848,2.694
394.084,2.704
394.320,2.704
394.557,2.714
394.794,2.724
395.031,2.742
395.269,2.755
395.507,2.770
395.745,2.778
395.983,2.789
396.222,2.801
396.461,2.822
396.700,2.844
396.940,2.859
397.180,2.863
397.420,2.858
397.660,2.854
397.901,2.853
398.142,2.859
398.383,2.866
398.625,2.870
398.866,2.881
399.108,2.904
399.351,2.938
399.593,2.948
399.836,2.946
400.079,2.932
400.322,2.934
400.566,2.935
400.809,2.944
401.053,2.952
401.298,2.965
401.542,2.979
401.787,2.996
402.031,3.010
402.277,3.022
402.522,3.026
402.767,3.040
403.013,3.040
403.259,3.045
403.505,3.043
403.752,3.049
403.998,3.055
404.245,3.081
404.492,3.105
404.739,3.125
404.986,3.131
405.234,3.143
405.482,3.151
405.730,3.158
405.978,3.161
406.226,3.164
406.475,3.162
406.723,3.168
406.972,3.181
407.221,3.205
407.470,3.215
407.720,3.229
407.969,3.225
408.219,3.241
408.469,3.255
408.719,3.279
408.969,3.288
409.219,3.300
409.470,3.310
409.720,3.327
409.971,3.340
410.222,3.360
410.473,3.367
410.724,3.374
410.976,3.381
411.227,3.402
411.479,3.416
411.731,3.431
411.983,3.436
412.235,3.447
412.487,3.446
412.740,3.453
412.992,3.463
413.245,3.483
413.497,3.493
413.750,3.505
414.003,3.504
414.257,3.510
414.510,3.511
414.763,3.525
415.017,3.536
415.270,3.549
415.524,3.554
415.778,3.557
416.032,3.558
416.286,3.577
416.540,3.594
416.794,3.619
417.049,3.628
417.303,3.639
417.558,3.642
417.812,3.648
418.067,3.652
418.322,3.665
418.577,3.674
418.832,3.689
419.088,3.694
419.343,3.706
419.598,3.701
419.854,3.711
420.109,3.716
420.365,3.745
420.621,3.762
420.876,3.785
421.132,3.799
421.388,3.812
421.645,3.819
421.901,3.833
422.157,3.851
422.413,3.879
422.670,3.895
422.926,3.916
423.183,3.928
423.439,3.956
423.696,3.985
423.953,4.037
424.210,4.076
424.467,4.105
424.724,4.113
424.981,4.130
425.238,4.161
425.495,4.221
425.753,4.277
426.010,4.331
426.267,4.373
426.525,4.439
426.782,4.501
427.040,4.565
427.298,4.628
427.555,4.714
427.813,4.796
428.071,4.879
428.329,4.955
428.587,5.043
428.845,5.128
429.103,5.226
429.361,5.320
429.619,5.425
429.878,5.527
430.136,5.648
430.394,5.764
430.653,5.902
430.911,6.044
431.170,6.202
431.428,6.339
431.687,6.481
431.946,6.617
432.204,6.774
432.463,6.941
432.722,7.125
432.981,7.311
433.240,7.514
433.499,7.722
433.758,7.950
434.017,8.161
434.276,8.378
434.535,8.591
434.794,8.829
435.053,9.081
435.312,9.352
435.572,9.626
435.831,9.913
436.090,10.208
436.350,10.524
436.609,10.852
436.869,11.194
437.128,11.539
437.388,11.893
437.647,12.257
437.907,12.637
438.166,13.018
438.426,13.407
438.686,13.806
438.946,14.236
439.205,14.683
439.465,15.159
439.725,15.653
439.985,16.164
440.245,16.667
440.505,17.178
440.765,17.691
441.025,18.225
441.285,18.775
441.545,19.337
441.805,19.911
442.065,20.494
442.325,21.100
442.585,21.747
442.846,22.420
443.106,23.143
443.366,23.879
443.626,24.640
443.887,25.407
444.147,26.205
444.407,27.022
444.668,27.886
444.928,28.775
445.189,29.726
445.449,30.712
445.710,31.747
445.970,32.808
446.231,33.932
446.491,35.123
446.752,36.384
447.012,37.684
447.273,39.034
447.534,40.420
447.794,41.856
448.055,43.346
448.316,44.939
448.577,46.635
448.837,48.433
449.098,50.304
449.359,52.223
449.620,54.168
449.881,56.144
450.142,58.160
450.403,60.241
450.664,62.400
450.924,64.610
451.185,66.861
451.446,69.117
451.707,71.381
451.969,73.642
452.230,75.888
452.491,78.109
452.752,80.230
453.013,82.205
453.274,83.953
453.535,85.442
453.796,86.671
454.058,87.693
454.319,88.585
454.580,89.358
454.841,90.037
455.103,90.606
455.364,91.083
455.625,91.476
455.887,91.782
456.148,92.019
456.409,92.184
456.671,92.281
456.932,92.310
457.194,92.276
457.455,92.186
457.716,92.045
457.978,91.856
458.239,91.621
458.501,91.330
458.763,90.966
459.024,90.528
459.286,90.009
459.547,89.404
459.809,88.707
460.071,87.902
460.332,86.989
460.594,85.929
460.856,84.691
461.117,83.242
461.379,81.629
461.641,79.897
461.903,78.117
462.164,76.353
462.426,74.638
462.688,72.991
462.950,71.376
463.212,69.818
463.474,68.331
463.736,66.919
463.998,65.597
464.260,64.353
464.522,63.204
464.784,62.146
465.046,61.173
465.308,60.301
465.570,59.498
465.832,58.786
466.094,58.110
466.356,57.483
466.618,56.864
466.880,56.269
467.142,55.695
467.405,55.165
467.667,54.683
467.929,54.238
468.191,53.810
468.454,53.375
468.716,52.933
468.978,52.470
469.241,51.977
469.503,51.470
469.765,50.965
470.028,50.458
470.290,49.918
470.552,49.359
470.815,48.794
471.077,48.220
471.340,47.630
471.602,47.010
471.865,46.380
472.128,45.720
472.390,45.067
472.653,44.400
472.915,43.728
473.178,43.036
473.441,42.318
473.703,41.569
473.966,40.795
474.229,40.009
474.492,39.216
474.755,38.428
475.017,37.669
475.280,36.939
475.543,36.230
475.806,35.504
476.069,34.772
476.332,34.045
476.595,33.340
476.858,32.660
477.121,32.009
477.384,31.388
477.647,30.811
477.910,30.252
478.173,29.702
478.436,29.159
478.699,28.650
478.962,28.175
479.226,27.742
479.489,27.329
479.752,26.937
480.015,26.540
480.279,26.162
480.542,25.805
480.805,25.475
481.069,25.143
481.332,24.827
481.595,24.539
481.859,24.315
482.122,24.109
482.386,23.898
482.649,23.671
482.913,23.449
483.177,23.239
483.440,23.034
483.704,22.848
483.967,22.691
484.231,22.555
484.495,22.433
484.759,22.309
485.022,22.172
485.286,22.009
485.550,21.839
485.814,21.656
486.078,21.482
486.342,21.311
486.606,21.169
486.869,21.039
487.133,20.928
487.397,20.821
487.662,20.719
487.926,20.593
488.190,20.455
488.454,20.306
488.718,20.171
488.982,20.031
489.246,19.906
489.511,19.781
489.775,19.675
490.039,19.569
490.304,19.463
490.568,19.351
490.832,19.250
491.097,19.161
491.361,19.090
491.626,19.015
491.890,18.945
492.155,18.880
492.419,18.836
492.684,18.780
492.949,18.725
493.213,18.669
493.478,18.655
493.743,18.639
494.008,18.619
494.272,18.597
494.537,18.617
494.802,18.663
495.067,18.723
495.332,18.759
495.597,18.792
495.862,18.818
496.127,18.859
496.392,18.900
496.657,18.948
496.922,19.000
497.187,19.087
497.452,19.189
497.718,19.315
497.983,19.425
498.248,19.535
498.513,19.628
498.779,19.740
499.044,19.849
499.310,19.955
499.575,20.041
499.841,20.143
500.106,20.255
500.372,20.378
500.637,20.510
500.903,20.664
501.168,20.809
501.434,20.939
501.700,21.038
501.966,21.154
502.231,21.270
502.497,21.394
502.763,21.504
503.029,21.617
503.295,21.738
503.561,21.877
503.827,22.020
504.093,22.168
504.359,22.297
504.625,22.433
504.891,22.556
505.157,22.701
505.423,22.834
505.690,22.970
505.956,23.093
506.222,23.239
506.489,23.402
506.755,23.581
507.021,23.745
507.288,23.892
507.554,24.017
507.821,24.144
508.087,24.269
508.354,24.418
508.621,24.564
508.887,24.707
509.154,24.831
509.421,24.955
509.687,25.073
509.954,25.197
510.221,25.322
510.488,25.475
510.755,25.631
511.022,25.794
511.289,25.930
511.556,26.066
511.823,26.191
512.090,26.336
512.357,26.462
512.624,26.593
512.891,26.701
513.159,26.811
513.426,26.922
513.693,27.045
513.960,27.170
514.228,27.287
514.495,27.399
514.763,27.516
515.030,27.638
515.298,27.763
515.565,27.900
515.833,28.033
516.100,28.142
516.368,28.230
516.636,28.302
516.904,28.402
517.171,28.488
517.439,28.582
517.707,28.668
517.975,28.778
518.243,28.889
518.511,28.997
518.779,29.083
519.047,29.176
519.315,29.270
519.583,29.372
519.851,29.459
520.119,29.545
520.387,29.634
520.656,29.743
520.924,29.852
521.192,29.949
521.461,30.021
521.729,30.082
521.997,30.136
522.266,30.184
522.534,30.231
522.803,30.302
523.071,30.387
523.340,30.484
523.609,30.574
523.877,30.663
524.146,30.739
524.415,30.806
524.684,30.871
524.952,30.945
525.221,31.021
525.490,31.115
525.759,31.205
526.028,31.290
526.297,31.339
526.566,31.396
526.835,31.453
527.104,31.532
527.373,31.591
527.642,31.646
527.912,31.676
528.181,31.718
528.450,31.762
528.719,31.817
528.989,31.869
529.258,31.926
529.528,31.972
529.797,31.993
530.067,32.013
530.336,32.048
530.606,32.095
530.875,32.134
531.145,32.172
531.414,32.220
531.684,32.277
531.954,32.320
532.224,32.350
532.493,32.358
532.763,32.361
533.033,32.372
533.303,32.392
533.573,32.435
533.843,32.463
534.113,32.505
534.383,32.539
534.653,32.595
534.923,32.642
535.193,32.670
535.463,32.672
535.733,32.669
536.004,32.669
536.274,32.691
536.544,32.705
536.814,32.732
537.085,32.755
537.355,32.807
537.626,32.853
537.896,32.885
538.166,32.892
538.437,32.908
538.707,32.931
538.978,32.980
539.249,33.046
539.519,33.119
539.790,33.169
540.061,33.202
540.331,33.236
540.602,33.267
540.873,33.273
541.144,33.273
541.414,33.270
541.685,33.294
541.956,33.321
542.227,33.359
542.498,33.386
542.769,33.408
543.040,33.439
543.311,33.501
543.582,33.578
543.853,33.636
544.124,33.662
544.396,33.684
544.667,33.719
544.938,33.746
545.209,33.728
545.480,33.704
545.752,33.675
546.023,33.674
546.294,33.649
546.566,33.621
546.837,33.583
547.109,33.570
547.380,33.572
547.652,33.581
547.923,33.588
548.195,33.603
548.466,33.621
548.738,33.638
549.009,33.634
549.281,33.618
549.553,33.591
549.824,33.554
550.096,33.520
550.368,33.508
550.640,33.521
550.911,33.547
551.183,33.572
551.455,33.597
551.727,33.602
551.999,33.578
552.271,33.532
552.543,33.507
552.815,33.497
553.087,33.513
553.359,33.518
553.631,33.516
553.903,33.482
554.175,33.442
554.447,33.406
554.719,33.373
554.991,33.329
555.263,33.278
555.535,33.223
555.808,33.176
556.080,33.139
556.352,33.121
556.624,33.111
556.897,33.088
557.169,33.048
557.441,32.989
557.714,32.919
557.986,32.852
558.258,32.793
558.531,32.768
558.803,32.759
559.076,32.757
559.348,32.729
559.621,32.674
559.893,32.611
560.166,32.558
560.438,32.529
560.711,32.515
560.983,32.515
561.256,32.528
561.528,32.532
561.801,32.517
562.074,32.474
562.346,32.437
562.619,32.396
562.892,32.355
563.164,32.296
563.437,32.246
563.710,32.197
563.983,32.158
564.255,32.123
564.528,32.129
564.801,32.152
565.074,32.177
565.346,32.167
565.619,32.144
565.892,32.098
566.165,32.033
566.438,31.940
566.711,31.864
566.984,31.798
567.257,31.756
567.529,31.711
567.802,31.681
568.075,31.654
568.348,31.628
568.621,31.596
568.894,31.560
569.167,31.517
569.440,31.468
569.713,31.383
569.986,31.281
570.259,31.158
570.532,31.060
570.805,30.982
571.078,30.930
571.351,30.881
571.625,30.830
571.898,30.761
572.171,30.687
572.444,30.606
572.717,30.541
572.990,30.473
573.263,30.385
573.536,30.268
573.809,30.147
574.083,30.042
574.356,29.970
574.629,29.922
574.902,29.883
575.175,29.835
575.448,29.775
575.721,29.695
575.995,29.612
576.268,29.528
576.541,29.465
576.814,29.405
577.087,29.344
577.361,29.275
577.634,29.209
577.907,29.143
578.180,29.077
578.453,29.009
578.727,28.944
579.000,28.866
579.273,28.798
579.546,28.738
579.820,28.699
580.093,28.649
580.366,28.595
580.639,28.533
580.913,28.481
581.186,28.421
581.459,28.359
581.732,28.277
582.005,28.197
582.279,28.103
582.552,28.017
582.825,27.930
583.098,27.854
583.372,27.784
583.645,27.734
583.918,27.706
584.191,27.699
584.464,27.683
584.738,27.653
585.011,27.593
585.284,27.523
585.557,27.432
585.831,27.339
586.104,27.230
586.377,27.142
586.650,27.070
586.923,27.027
587.196,26.997
587.470,26.965
587.743,26.935
588.016,26.896
588.289,26.840
588.562,26.766
588.835,26.664
589.109,26.551
589.382,26.429
589.655,26.334
589.928,26.265
590.201,26.222
590.474,26.192
590.747,26.163
591.020,26.134
591.293,26.086
591.567,26.015
591.840,25.917
592.113,25.803
592.386,25.684
592.659,25.556
592.932,25.440
593.205,25.354
593.478,25.303
593.751,25.265
594.024,25.223
594.297,25.165
594.570,25.098
594.843,25.018
595.116,24.928
595.389,24.821
595.662,24.704
595.934,24.599
596.207,24.508
596.480,24.418
596.753,24.331
597.026,24.234
597.299,24.162
597.572,24.090
597.844,24.022
598.117,23.932
598.390,23.833
598.663,23.712
598.936,23.581
599.208,23.445
599.481,23.328
599.754,23.236
600.026,23.144
600.299,23.054
600.572,22.959
600.844,22.863
601.117,22.763
601.390,22.658
601.662,22.555
601.935,22.437
602.207,22.323
602.480,22.205
602.752,22.093
603.025,21.960
603.297,21.828
603.570,21.713
603.842,21.635
604.115,21.554
604.387,21.467
604.660,21.353
604.932,21.241
605.204,21.123
605.477,21.017
605.749,20.914
606.021,20.806
606.294,20.688
606.566,20.558
606.838,20.439
607.110,20.332
607.383,20.252
607.655,20.187
607.927,20.129
608.199,20.073
608.471,19.995
608.743,19.897
609.015,19.772
609.287,19.647
609.559,19.526
609.831,19.420
610.103,19.309
610.375,19.203
610.647,19.083
610.919,18.962
611.191,18.828
611.463,18.701
611.735,18.570
612.007,18.442
612.278,18.318
612.550,18.212
612.822,18.109
613.094,17.998
613.365,17.864
613.637,17.734
613.909,17.611
614.180,17.508
614.452,17.396
614.723,17.276
614.995,17.148
615.266,17.036
615.538,16.938
615.809,16.859
616.081,16.760
616.352,16.652
616.623,16.526
616.895,16.411
617.166,16.288
617.437,16.167
617.709,16.036
617.980,15.928
618.251,15.830
618.522,15.764
618.793,15.704
619.065,15.665
619.336,15.594
619.607,15.503
619.878,15.393
620.149,15.304
620.420,15.197
620.691,15.075
620.962,14.946
621.232,14.847
621.503,14.746
621.774,14.660
622.045,14.578
622.316,14.530
622.586,14.484
622.857,14.439
623.128,14.362
623.398,14.279
623.669,14.182
623.940,14.097
624.210,13.995
624.481,13.915
624.751,13.818
625.021,13.724
625.292,13.613
625.562,13.539
625.833,13.477
626.103,13.429
626.373,13.363
626.643,13.302
626.914,13.236
627.184,13.169
627.454,13.094
627.724,13.020
627.994,12.948
628.264,12.877
628.534,12.793
628.804,12.712
629.074,12.637
629.344,12.576
629.614,12.516
629.884,12.460
630.154,12.405
630.424,12.355
630.693,12.304
630.963,12.246
631.233,12.175
631.502,12.103
631.772,12.031
632.041,11.954
632.311,11.865
632.581,11.780
632.850,11.696
633.119,11.606
633.389,11.519
633.658,11.456
633.928,11.427
634.197,11.409
634.466,11.383
634.735,11.346
635.004,11.289
635.274,11.225
635.543,11.147
635.812,11.079
636.081,11.015
636.350,10.962
636.619,10.895
636.888,10.824
637.157,10.745
637.426,10.685
637.694,10.625
637.963,10.575
638.232,10.531
638.501,10.485
638.769,10.434
639.038,10.376
639.307,10.322
639.575,10.273
639.844,10.208
640.112,10.136
640.381,10.057
640.649,9.997
640.917,9.938
641.186,9.882
641.454,9.835
641.722,9.793
641.991,9.747
642.259,9.680
642.527,9.610
642.795,9.551
643.063,9.496
643.331,9.446
643.599,9.403
643.867,9.383
644.135,9.358
644.403,9.329
644.671,9.274
644.939,9.219
645.206,9.159
645.474,9.105
645.742,9.050
646.009,8.990
646.277,8.929
646.545,8.872
646.812,8.825
647.080,8.784
647.347,8.733
647.615,8.671
647.882,8.597
648.149,8.525
648.417,8.455
648.684,8.394
648.951,8.347
649.219,8.306
649.486,8.267
649.753,8.226
650.020,8.176
650.287,8.115
650.554,8.042
650.821,7.971
651.088,7.899
651.355,7.846
651.622,7.787
651.889,7.740
652.155,7.677
652.422,7.627
652.689,7.579
652.956,7.535
653.222,7.493
653.489,7.460
653.755,7.423
654.022,7.366
654.288,7.293
654.555,7.220
654.821,7.161
655.088,7.109
655.354,7.065
655.620,7.030
655.887,6.989
656.153,6.946
656.419,6.892
656.685,6.845
656.951,6.801
657.217,6.761
657.483,6.713
657.749,6.666
658.015,6.618
658.281,6.573
658.547,6.514
658.813,6.454
659.079,6.387
659.345,6.319
659.610,6.251
659.876,6.193
660.142,6.144
660.407,6.104
660.673,6.068
660.939,6.039
661.204,5.997
661.470,5.954
661.735,5.914
662.000,5.888
662.266,5.851
662.531,5.807
662.796,5.757
663.062,5.712
663.327,5.660
663.592,5.610
663.857,5.562
664.122,5.521
664.388,5.483
664.653,5.452
664.918,5.424
665.183,5.395
665.448,5.366
665.712,5.338
665.977,5.308
666.242,5.271
666.507,5.213
666.772,5.157
667.037,5.101
667.301,5.070
667.566,5.037
667.831,5.013
668.095,4.978
668.360,4.948
668.624,4.899
668.889,4.863
669.153,4.823
669.418,4.798
669.682,4.770
669.946,4.751
670.211,4.736
670.475,4.711
670.739,4.686
671.004,4.654
671.268,4.635
671.532,4.621
671.796,4.568
672.060,4.510
672.324,4.443
672.588,4.417
672.852,4.395
673.116,4.398
673.380,4.408
673.644,4.372
673.908,4.308
674.172,4.238
674.436,4.207
674.700,4.180
674.963,4.154
675.227,4.126
675.491,4.084
675.754,4.041
676.018,4.002
676.282,3.974
676.545,3.947
676.809,3.916
677.072,3.879
677.336,3.840
677.599,3.814
677.863,3.793
678.126,3.777
678.389,3.764
678.653,3.756
678.916,3.739
679.179,3.702
679.442,3.664
679.706,3.638
679.969,3.622
680.232,3.610
680.495,3.595
680.758,3.578
681.021,3.552
681.284,3.513
681.547,3.474
681.810,3.447
682.073,3.441
682.336,3.432
682.599,3.411
682.862,3.387
683.125,3.373
683.388,3.364
683.651,3.351
683.913,3.332
684.176,3.305
684.439,3.272
684.702,3.233
684.964,3.198
685.227,3.173
685.490,3.159
685.752,3.152
686.015,3.139
686.277,3.117
686.540,3.083
686.802,3.048
687.065,3.024
687.327,3.010
687.590,3.000
687.852,2.982
688.115,2.956
688.377,2.934
688.639,2.921
688.902,2.909
689.164,2.897
689.426,2.889
689.689,2.879
689.951,2.859
690.213,2.836
690.475,2.814
690.737,2.792
691.000,2.767
691.262,2.745
691.524,2.733
691.786,2.729
692.048,2.727
692.310,2.717
692.572,2.688
692.834,2.654
693.096,2.634
693.358,2.636
693.620,2.643
693.882,2.642
694.144,2.627
694.406,2.603
694.668,2.579
694.930,2.554
695.192,2.530
695.453,2.508
695.715,2.495
695.977,2.482
696.239,2.465
696.501,2.453
696.762,2.450
697.024,2.449
697.286,2.435
697.548,2.422
697.809,2.409
698.071,2.396
698.333,2.374
698.594,2.352
698.856,2.342
699.118,2.335
699.379,2.331
699.641,2.324
699.902,2.319
700.164,2.303
700.426,2.282
700.687,2.260
700.949,2.251
701.210,2.246
701.472,2.239
701.733,2.225
701.995,2.212
702.256,2.198
702.518,2.183
702.779,2.165
703.041,2.163
703.302,2.170
703.563,2.167
703.825,2.150
704.086,2.128
704.348,2.116
704.609,2.107
704.871,2.107
705.132,2.112
705.393,2.105
705.655,2.092
705.916,2.082
706.177,2.079
706.439,2.076
706.700,2.068
706.961,2.058
707.223,2.051
707.484,2.031
707.745,2.010
708.007,1.986
708.268,1.970
708.529,1.950
708.790,1.922
709.052,1.899
709.313,1.884
709.574,1.882
709.835,1.877
710.097,1.865
710.358,1.841
710.619,1.819
710.881,1.797
711.142,1.780
711.403,1.762
711.664,1.754
711.926,1.744
712.187,1.740
712.448,1.739
712.709,1.745
712.970,1.748
713.232,1.749
713.493,1.747
713.754,1.740
714.015,1.732
714.277,1.727
714.538,1.725
714.799,1.733
715.060,1.733
715.322,1.728
715.583,1.713
715.844,1.700
716.105,1.686
716.367,1.674
716.628,1.666
716.889,1.659
717.150,1.646
717.411,1.626
717.673,1.614
717.934,1.609
718.195,1.611
718.457,1.602
718.718,1.582
718.979,1.564
719.240,1.561
719.502,1.571
719.763,1.581
720.024,1.585
720.286,1.582
720.547,1.572
720.808,1.558
721.069,1.545
721.331,1.546
721.592,1.557
721.853,1.566
722.115,1.566
722.376,1.560
722.638,1.545
722.899,1.534
723.160,1.518
723.422,1.509
723.683,1.497
723.944,1.498
724.206,1.497
724.467,1.497
724.729,1.492
724.990,1.496
725.252,1.498
725.513,1.487
725.775,1.467
726.036,1.450
726.298,1.449
726.559,1.453
726.821,1.455
727.082,1.455
727.344,1.454
727.605,1.457
727.867,1.455
728.128,1.457
728.390,1.459
728.652,1.471
728.913,1.484
729.175,1.490
729.436,1.487
729.698,1.481
729.960,1.474
730.221,1.463
730.483,1.445
730.745,1.439
731.007,1.436
731.268,1.436
731.530,1.433
731.792,1.435
732.054,1.441
732.315,1.448
732.577,1.453
732.839,1.448
733.101,1.438
733.363,1.429
733.625,1.425
733.887,1.429
734.149,1.434
734.411,1.444
734.673,1.449
734.935,1.450
735.197,1.445
735.459,1.446
735.721,1.449
735.983,1.444
736.245,1.432
