Wavelength (nm),Intensity W9.1,,C:/Users/Brend/Desktop/LED Spectras v2/Spectrometer Data (White).sp,,,W9.1,
379.792,2.136,,2018-06-15 10:57:54,,Integration Time,157 ms,
380.000,2.131,,Analyze Light,,Number of Scans to Average,25,
380.209,2.131,,,,Smoothing,1,
380.418,2.146
380.627,2.168
380.837,2.188
381.048,2.200
381.259,2.203
381.471,2.200
381.683,2.202
381.896,2.212
382.110,2.218
382.324,2.229
382.538,2.244
382.753,2.261
382.969,2.258
383.185,2.248
383.402,2.240
383.619,2.253
383.837,2.271
384.055,2.295
384.274,2.310
384.493,2.323
384.712,2.328
384.932,2.335
385.153,2.342
385.374,2.354
385.596,2.366
385.818,2.387
386.040,2.403
386.263,2.423
386.487,2.429
386.710,2.431
386.935,2.421
387.159,2.420
387.385,2.419
387.610,2.424
387.836,2.426
388.063,2.436
388.289,2.447
388.517,2.457
388.744,2.460
388.972,2.475
389.201,2.487
389.430,2.501
389.659,2.509
389.889,2.522
390.119,2.531
390.349,2.540
390.580,2.552
390.811,2.566
391.042,2.572
391.274,2.576
391.507,2.582
391.739,2.583
391.972,2.577
392.205,2.578
392.439,2.593
392.673,2.615
392.907,2.633
393.142,2.652
393.377,2.668
393.612,2.687
393.848,2.695
394.084,2.707
394.320,2.712
394.557,2.728
394.794,2.736
395.031,2.752
395.269,2.766
395.507,2.785
395.745,2.789
395.983,2.790
396.222,2.794
396.461,2.817
396.700,2.845
396.940,2.867
397.180,2.873
397.420,2.870
397.660,2.866
397.901,2.866
398.142,2.871
398.383,2.873
398.625,2.872
398.866,2.879
399.108,2.900
399.351,2.936
399.593,2.951
399.836,2.962
400.079,2.955
400.322,2.951
400.566,2.942
400.809,2.941
401.053,2.947
401.298,2.960
401.542,2.975
401.787,2.994
402.031,3.006
402.277,3.024
402.522,3.037
402.767,3.053
403.013,3.053
403.259,3.050
403.505,3.043
403.752,3.047
403.998,3.053
404.245,3.079
404.492,3.107
404.739,3.131
404.986,3.140
405.234,3.149
405.482,3.156
405.730,3.162
405.978,3.169
406.226,3.175
406.475,3.176
406.723,3.179
406.972,3.191
407.221,3.214
407.470,3.224
407.720,3.226
407.969,3.218
408.219,3.232
408.469,3.254
408.719,3.279
408.969,3.286
409.219,3.292
409.470,3.301
409.720,3.321
409.971,3.339
410.222,3.363
410.473,3.375
410.724,3.381
410.976,3.383
411.227,3.400
411.479,3.417
411.731,3.434
411.983,3.436
412.235,3.442
412.487,3.443
412.740,3.456
412.992,3.462
413.245,3.475
413.497,3.476
413.750,3.485
414.003,3.488
414.257,3.498
414.510,3.501
414.763,3.516
415.017,3.531
415.270,3.547
415.524,3.549
415.778,3.551
416.032,3.557
416.286,3.573
416.540,3.590
416.794,3.613
417.049,3.625
417.303,3.641
417.558,3.652
417.812,3.663
418.067,3.667
418.322,3.673
418.577,3.676
418.832,3.683
419.088,3.677
419.343,3.686
419.598,3.687
419.854,3.701
420.109,3.709
420.365,3.735
420.621,3.750
420.876,3.774
421.132,3.789
421.388,3.810
421.645,3.823
421.901,3.844
422.157,3.861
422.413,3.881
422.670,3.890
422.926,3.910
423.183,3.923
423.439,3.957
423.696,3.988
423.953,4.046
424.210,4.092
424.467,4.126
424.724,4.136
424.981,4.149
425.238,4.182
425.495,4.239
425.753,4.294
426.010,4.345
426.267,4.386
426.525,4.443
426.782,4.499
427.040,4.568
427.298,4.639
427.555,4.728
427.813,4.808
428.071,4.891
428.329,4.969
428.587,5.053
428.845,5.140
429.103,5.231
429.361,5.319
429.619,5.414
429.878,5.516
430.136,5.641
430.394,5.761
430.653,5.902
430.911,6.047
431.170,6.209
431.428,6.353
431.687,6.505
431.946,6.650
432.204,6.810
432.463,6.975
432.722,7.154
432.981,7.339
433.240,7.543
433.499,7.756
433.758,7.989
434.017,8.201
434.276,8.415
434.535,8.626
434.794,8.863
435.053,9.116
435.312,9.393
435.572,9.670
435.831,9.966
436.090,10.270
436.350,10.599
436.609,10.932
436.869,11.273
437.128,11.614
437.388,11.965
437.647,12.335
437.907,12.725
438.166,13.108
438.426,13.491
438.686,13.897
438.946,14.337
439.205,14.788
439.465,15.262
439.725,15.758
439.985,16.271
440.245,16.780
440.505,17.299
440.765,17.831
441.025,18.373
441.285,18.923
441.545,19.486
441.805,20.068
442.065,20.665
442.325,21.282
442.585,21.933
442.846,22.605
443.106,23.320
443.366,24.044
443.626,24.806
443.887,25.582
444.147,26.397
444.407,27.227
444.668,28.094
444.928,29.006
445.189,29.973
445.449,30.982
445.710,32.025
445.970,33.109
446.231,34.250
446.491,35.445
446.752,36.698
447.012,38.002
447.273,39.367
447.534,40.778
447.794,42.241
448.055,43.763
448.316,45.388
448.577,47.103
448.837,48.891
449.098,50.747
449.359,52.669
449.620,54.649
449.881,56.658
450.142,58.695
450.403,60.809
450.664,62.995
450.924,65.252
451.185,67.528
451.446,69.821
451.707,72.100
451.969,74.381
452.230,76.641
452.491,78.864
452.752,80.991
453.013,82.942
453.274,84.643
453.535,86.043
453.796,87.201
454.058,88.180
454.319,89.041
454.580,89.791
454.841,90.444
455.103,90.992
455.364,91.447
455.625,91.824
455.887,92.134
456.148,92.369
456.409,92.521
456.671,92.598
456.932,92.618
457.194,92.588
457.455,92.510
457.716,92.380
457.978,92.194
458.239,91.959
458.501,91.679
458.763,91.348
459.024,90.942
459.286,90.452
459.547,89.878
459.809,89.199
460.071,88.420
460.332,87.539
460.594,86.547
460.856,85.396
461.117,84.012
461.379,82.432
461.641,80.708
461.903,78.941
462.164,77.181
462.426,75.464
462.688,73.804
462.950,72.194
463.212,70.630
463.474,69.126
463.736,67.688
463.998,66.331
464.260,65.061
464.522,63.894
464.784,62.811
465.046,61.829
465.308,60.949
465.570,60.155
465.832,59.421
466.094,58.740
466.356,58.103
466.618,57.498
466.880,56.900
467.142,56.315
467.405,55.765
467.667,55.267
467.929,54.812
468.191,54.382
468.454,53.958
468.716,53.532
468.978,53.069
469.241,52.558
469.503,52.014
469.765,51.480
470.028,50.952
470.290,50.411
470.552,49.850
470.815,49.279
471.077,48.704
471.340,48.115
471.602,47.505
471.865,46.873
472.128,46.217
472.390,45.538
472.653,44.859
472.915,44.162
473.178,43.462
473.441,42.730
473.703,41.976
473.966,41.188
474.229,40.398
474.492,39.596
474.755,38.814
475.017,38.059
475.280,37.331
475.543,36.607
475.806,35.866
476.069,35.128
476.332,34.397
476.595,33.691
476.858,32.990
477.121,32.306
477.384,31.649
477.647,31.055
477.910,30.494
478.173,29.949
478.436,29.416
478.699,28.917
478.962,28.447
479.226,28.009
479.489,27.582
479.752,27.182
480.015,26.782
480.279,26.403
480.542,26.036
480.805,25.702
481.069,25.376
481.332,25.070
481.595,24.780
481.859,24.542
482.122,24.326
482.386,24.117
482.649,23.892
482.913,23.670
483.177,23.445
483.440,23.235
483.704,23.036
483.967,22.875
484.231,22.733
484.495,22.613
484.759,22.482
485.022,22.341
485.286,22.183
485.550,22.020
485.814,21.834
486.078,21.651
486.342,21.485
486.606,21.357
486.869,21.242
487.133,21.131
487.397,21.018
487.662,20.905
487.926,20.777
488.190,20.643
488.454,20.498
488.718,20.364
488.982,20.224
489.246,20.105
489.511,19.975
489.775,19.853
490.039,19.723
490.304,19.604
490.568,19.492
490.832,19.389
491.097,19.298
491.361,19.222
491.626,19.159
491.890,19.102
492.155,19.037
492.419,18.984
492.684,18.920
492.949,18.869
493.213,18.822
493.478,18.807
493.743,18.795
494.008,18.774
494.272,18.758
494.537,18.771
494.802,18.811
495.067,18.864
495.332,18.911
495.597,18.955
495.862,18.987
496.127,19.036
496.392,19.081
496.657,19.126
496.922,19.168
497.187,19.250
497.452,19.353
497.718,19.483
497.983,19.594
498.248,19.705
498.513,19.793
498.779,19.898
499.044,20.001
499.310,20.107
499.575,20.200
499.841,20.315
500.106,20.437
500.372,20.564
500.637,20.684
500.903,20.824
501.168,20.958
501.434,21.085
501.700,21.189
501.966,21.301
502.231,21.415
502.497,21.545
502.763,21.673
503.029,21.805
503.295,21.936
503.561,22.078
503.827,22.215
504.093,22.351
504.359,22.476
504.625,22.618
504.891,22.758
505.157,22.919
505.423,23.064
505.690,23.197
505.956,23.319
506.222,23.456
506.489,23.616
506.755,23.779
507.021,23.929
507.288,24.076
507.554,24.217
507.821,24.363
508.087,24.495
508.354,24.644
508.621,24.778
508.887,24.915
509.154,25.040
509.421,25.173
509.687,25.295
509.954,25.421
510.221,25.561
510.488,25.726
510.755,25.887
511.022,26.037
511.289,26.157
511.556,26.273
511.823,26.380
512.090,26.518
512.357,26.644
512.624,26.779
512.891,26.902
513.159,27.037
513.426,27.168
513.693,27.297
513.960,27.412
514.228,27.526
514.495,27.634
514.763,27.745
515.030,27.857
515.298,27.986
515.565,28.131
515.833,28.274
516.100,28.396
516.368,28.491
516.636,28.561
516.904,28.648
517.171,28.735
517.439,28.835
517.707,28.926
517.975,29.043
518.243,29.169
518.511,29.287
518.779,29.377
519.047,29.472
519.315,29.585
519.583,29.698
519.851,29.779
520.119,29.838
520.387,29.904
520.656,29.995
520.924,30.094
521.192,30.187
521.461,30.265
521.729,30.341
521.997,30.408
522.266,30.470
522.534,30.519
522.803,30.582
523.071,30.656
523.340,30.736
523.609,30.818
523.877,30.906
524.146,30.992
524.415,31.071
524.684,31.147
524.952,31.225
525.221,31.300
525.490,31.387
525.759,31.464
526.028,31.532
526.297,31.564
526.566,31.608
526.835,31.666
527.104,31.740
527.373,31.802
527.642,31.857
527.912,31.909
528.181,31.961
528.450,32.024
528.719,32.097
528.989,32.173
529.258,32.237
529.528,32.284
529.797,32.315
530.067,32.352
530.336,32.396
530.606,32.441
530.875,32.476
531.145,32.509
531.414,32.546
531.684,32.583
531.954,32.609
532.224,32.622
532.493,32.621
532.763,32.628
533.033,32.649
533.303,32.681
533.573,32.725
533.843,32.761
534.113,32.801
534.383,32.821
534.653,32.849
534.923,32.879
535.193,32.922
535.463,32.957
535.733,32.979
536.004,32.986
536.274,32.996
536.544,33.013
536.814,33.043
537.085,33.071
537.355,33.120
537.626,33.167
537.896,33.198
538.166,33.198
538.437,33.205
538.707,33.230
538.978,33.287
539.249,33.365
539.519,33.447
539.790,33.497
540.061,33.523
540.331,33.536
540.602,33.553
540.873,33.547
541.144,33.548
541.414,33.550
541.685,33.569
541.956,33.586
542.227,33.614
542.498,33.653
542.769,33.703
543.040,33.751
543.311,33.804
543.582,33.859
543.853,33.915
544.124,33.956
544.396,33.984
544.667,34.014
544.938,34.049
545.209,34.050
545.480,34.035
545.752,33.996
546.023,33.980
546.294,33.952
546.566,33.932
546.837,33.908
547.109,33.890
547.380,33.872
547.652,33.873
547.923,33.890
548.195,33.921
548.466,33.940
548.738,33.956
549.009,33.950
549.281,33.930
549.553,33.893
549.824,33.864
550.096,33.853
550.368,33.860
550.640,33.872
550.911,33.893
551.183,33.910
551.455,33.936
551.727,33.942
551.999,33.927
552.271,33.889
552.543,33.860
552.815,33.838
553.087,33.847
553.359,33.854
553.631,33.852
553.903,33.813
554.175,33.763
554.447,33.713
554.719,33.668
554.991,33.622
555.263,33.572
555.535,33.520
555.808,33.484
556.080,33.465
556.352,33.452
556.624,33.436
556.897,33.405
557.169,33.365
557.441,33.304
557.714,33.234
557.986,33.174
558.258,33.122
558.531,33.098
558.803,33.075
559.076,33.062
559.348,33.031
559.621,32.976
559.893,32.910
560.166,32.856
560.438,32.835
560.711,32.827
560.983,32.837
561.256,32.863
561.528,32.871
561.801,32.850
562.074,32.795
562.346,32.750
562.619,32.697
562.892,32.645
563.164,32.588
563.437,32.557
563.710,32.533
563.983,32.508
564.255,32.473
564.528,32.461
564.801,32.471
565.074,32.483
565.346,32.456
565.619,32.421
565.892,32.378
566.165,32.328
566.438,32.242
566.711,32.159
566.984,32.092
567.257,32.051
567.529,32.020
567.802,32.003
568.075,31.976
568.348,31.948
568.621,31.918
568.894,31.883
569.167,31.831
569.440,31.763
569.713,31.669
569.986,31.563
570.259,31.448
570.532,31.367
570.805,31.305
571.078,31.249
571.351,31.176
571.625,31.104
571.898,31.032
572.171,30.967
572.444,30.890
572.717,30.818
572.990,30.743
573.263,30.660
573.536,30.557
573.809,30.448
574.083,30.348
574.356,30.275
574.629,30.232
574.902,30.195
575.175,30.144
575.448,30.072
575.721,29.992
575.995,29.916
576.268,29.835
576.541,29.764
576.814,29.691
577.087,29.637
577.361,29.581
577.634,29.523
577.907,29.448
578.180,29.378
578.453,29.308
578.727,29.240
579.000,29.158
579.273,29.092
579.546,29.041
579.820,28.999
580.093,28.937
580.366,28.870
580.639,28.813
580.913,28.773
581.186,28.725
581.459,28.671
581.732,28.595
582.005,28.519
582.279,28.427
582.552,28.337
582.825,28.226
583.098,28.130
583.372,28.043
583.645,27.994
583.918,27.969
584.191,27.960
584.464,27.942
584.738,27.901
585.011,27.836
585.284,27.748
585.557,27.643
585.831,27.546
586.104,27.455
586.377,27.393
586.650,27.330
586.923,27.286
587.196,27.238
587.470,27.202
587.743,27.165
588.016,27.127
588.289,27.068
588.562,26.996
588.835,26.898
589.109,26.784
589.382,26.663
589.655,26.560
589.928,26.481
590.201,26.430
590.474,26.407
590.747,26.400
591.020,26.376
591.293,26.327
591.567,26.250
591.840,26.154
592.113,26.042
592.386,25.927
592.659,25.808
592.932,25.706
593.205,25.624
593.478,25.569
593.751,25.513
594.024,25.468
594.297,25.410
594.570,25.340
594.843,25.256
595.116,25.163
595.389,25.063
595.662,24.953
595.934,24.838
596.207,24.728
596.480,24.623
596.753,24.531
597.026,24.455
597.299,24.397
597.572,24.343
597.844,24.278
598.117,24.181
598.390,24.063
598.663,23.933
598.936,23.809
599.208,23.682
599.481,23.565
599.754,23.460
600.026,23.370
600.299,23.289
600.572,23.209
600.844,23.117
601.117,23.013
601.390,22.898
601.662,22.784
601.935,22.659
602.207,22.530
602.480,22.401
602.752,22.281
603.025,22.150
603.297,22.034
603.570,21.934
603.842,21.862
604.115,21.776
604.387,21.677
604.660,21.554
604.932,21.439
605.204,21.331
605.477,21.224
605.749,21.106
606.021,20.981
606.294,20.860
606.566,20.738
606.838,20.622
607.110,20.514
607.383,20.426
607.655,20.358
607.927,20.297
608.199,20.244
608.471,20.169
608.743,20.073
609.015,19.946
609.287,19.814
609.559,19.686
609.831,19.568
610.103,19.446
610.375,19.324
610.647,19.200
610.919,19.086
611.191,18.981
611.463,18.881
611.735,18.760
612.007,18.625
612.278,18.480
612.550,18.357
612.822,18.246
613.094,18.142
613.365,18.020
613.637,17.899
613.909,17.775
614.180,17.661
614.452,17.531
614.723,17.403
614.995,17.272
615.266,17.166
615.538,17.074
615.809,16.995
616.081,16.901
616.352,16.794
616.623,16.675
616.895,16.557
617.166,16.425
617.437,16.290
617.709,16.157
617.980,16.056
618.251,15.970
618.522,15.907
618.793,15.853
619.065,15.819
619.336,15.758
619.607,15.675
619.878,15.571
620.149,15.474
620.420,15.356
620.691,15.233
620.962,15.112
621.232,15.019
621.503,14.921
621.774,14.831
622.045,14.734
622.316,14.663
622.586,14.600
622.857,14.561
623.128,14.499
623.398,14.427
623.669,14.330
623.940,14.228
624.210,14.111
624.481,14.009
624.751,13.906
625.021,13.817
625.292,13.725
625.562,13.661
625.833,13.598
626.103,13.545
626.373,13.481
626.643,13.427
626.914,13.358
627.184,13.290
627.454,13.208
627.724,13.133
627.994,13.056
628.264,12.976
628.534,12.886
628.804,12.800
629.074,12.729
629.344,12.675
629.614,12.626
629.884,12.578
630.154,12.527
630.424,12.473
630.693,12.412
630.963,12.338
631.233,12.256
631.502,12.179
631.772,12.114
632.041,12.050
632.311,11.970
632.581,11.878
632.850,11.788
633.119,11.702
633.389,11.633
633.658,11.576
633.928,11.540
634.197,11.513
634.466,11.481
634.735,11.439
635.004,11.376
635.274,11.312
635.543,11.245
635.812,11.182
636.081,11.118
636.350,11.057
636.619,10.992
636.888,10.919
637.157,10.840
637.426,10.782
637.694,10.731
637.963,10.686
638.232,10.636
638.501,10.582
638.769,10.531
639.038,10.477
639.307,10.427
639.575,10.367
639.844,10.288
640.112,10.207
640.381,10.126
640.649,10.058
640.917,9.999
641.186,9.951
641.454,9.912
641.722,9.871
641.991,9.822
642.259,9.761
642.527,9.704
642.795,9.655
643.063,9.601
643.331,9.550
643.599,9.499
643.867,9.467
644.135,9.427
644.403,9.388
644.671,9.327
644.939,9.274
645.206,9.212
645.474,9.161
645.742,9.097
646.009,9.035
646.277,8.980
646.545,8.931
646.812,8.890
647.080,8.852
647.347,8.809
647.615,8.751
647.882,8.667
648.149,8.583
648.417,8.509
648.684,8.457
648.951,8.421
649.219,8.386
649.486,8.346
649.753,8.303
650.020,8.249
650.287,8.197
650.554,8.128
650.821,8.060
651.088,7.979
651.355,7.921
651.622,7.862
651.889,7.810
652.155,7.744
652.422,7.685
652.689,7.639
652.956,7.599
653.222,7.565
653.489,7.542
653.755,7.505
654.022,7.447
654.288,7.364
654.555,7.288
654.821,7.234
655.088,7.193
655.354,7.151
655.620,7.107
655.887,7.051
656.153,6.999
656.419,6.946
656.685,6.900
656.951,6.855
657.217,6.807
657.483,6.758
657.749,6.707
658.015,6.661
658.281,6.611
658.547,6.550
658.813,6.487
659.079,6.422
659.345,6.361
659.610,6.296
659.876,6.242
660.142,6.191
660.407,6.151
660.673,6.111
660.939,6.081
661.204,6.042
661.470,6.000
661.735,5.955
662.000,5.918
662.266,5.885
662.531,5.845
662.796,5.804
663.062,5.757
663.327,5.708
663.592,5.668
663.857,5.629
664.122,5.599
664.388,5.557
664.653,5.521
664.918,5.487
665.183,5.459
665.448,5.430
665.712,5.396
665.977,5.361
666.242,5.326
666.507,5.269
666.772,5.213
667.037,5.155
667.301,5.120
667.566,5.079
667.831,5.043
668.095,5.002
668.360,4.968
668.624,4.923
668.889,4.897
669.153,4.863
669.418,4.840
669.682,4.812
669.946,4.795
670.211,4.784
670.475,4.766
670.739,4.744
671.004,4.716
671.268,4.702
671.532,4.694
671.796,4.640
672.060,4.570
672.324,4.492
672.588,4.462
672.852,4.443
673.116,4.443
673.380,4.445
673.644,4.399
673.908,4.333
674.172,4.265
674.436,4.240
674.700,4.216
674.963,4.189
675.227,4.160
675.491,4.120
675.754,4.081
676.018,4.038
676.282,4.008
676.545,3.978
676.809,3.945
677.072,3.907
677.336,3.866
677.599,3.838
677.863,3.815
678.126,3.799
678.389,3.787
678.653,3.773
678.916,3.753
679.179,3.714
679.442,3.679
679.706,3.658
679.969,3.643
680.232,3.626
680.495,3.608
680.758,3.589
681.021,3.567
681.284,3.527
681.547,3.489
681.810,3.465
682.073,3.463
682.336,3.458
682.599,3.440
682.862,3.418
683.125,3.400
683.388,3.390
683.651,3.376
683.913,3.359
684.176,3.329
684.439,3.290
684.702,3.245
684.964,3.207
685.227,3.183
685.490,3.168
685.752,3.165
686.015,3.153
686.277,3.135
686.540,3.102
686.802,3.066
687.065,3.038
687.327,3.022
687.590,3.013
687.852,2.999
688.115,2.971
688.377,2.946
688.639,2.927
688.902,2.915
689.164,2.903
689.426,2.902
689.689,2.899
689.951,2.879
690.213,2.846
690.475,2.818
690.737,2.796
691.000,2.774
691.262,2.754
691.524,2.746
691.786,2.747
692.048,2.744
692.310,2.729
692.572,2.700
692.834,2.671
693.096,2.654
693.358,2.650
693.620,2.652
693.882,2.651
694.144,2.641
694.406,2.618
694.668,2.593
694.930,2.570
695.192,2.550
695.453,2.533
695.715,2.518
695.977,2.500
696.239,2.478
696.501,2.464
696.762,2.459
697.024,2.451
697.286,2.433
697.548,2.416
697.809,2.406
698.071,2.395
698.333,2.381
698.594,2.365
698.856,2.356
699.118,2.345
699.379,2.336
699.641,2.328
699.902,2.320
700.164,2.303
700.426,2.280
700.687,2.258
700.949,2.248
701.210,2.242
701.472,2.236
701.733,2.221
701.995,2.214
702.256,2.205
702.518,2.198
702.779,2.183
703.041,2.182
703.302,2.188
703.563,2.181
703.825,2.160
704.086,2.137
704.348,2.125
704.609,2.119
704.871,2.118
705.132,2.120
705.393,2.111
705.655,2.098
705.916,2.087
706.177,2.082
706.439,2.076
706.700,2.066
706.961,2.056
707.223,2.050
707.484,2.031
707.745,2.013
708.007,1.990
708.268,1.970
708.529,1.946
708.790,1.914
709.052,1.891
709.313,1.881
709.574,1.882
709.835,1.879
710.097,1.864
710.358,1.840
710.619,1.816
710.881,1.796
711.142,1.783
711.403,1.769
711.664,1.761
711.926,1.749
712.187,1.747
712.448,1.747
712.709,1.750
712.970,1.750
713.232,1.747
713.493,1.746
713.754,1.739
714.015,1.732
714.277,1.728
714.538,1.731
714.799,1.740
715.060,1.740
715.322,1.731
715.583,1.712
715.844,1.695
716.105,1.680
716.367,1.672
716.628,1.670
716.889,1.666
717.150,1.652
717.411,1.631
717.673,1.617
717.934,1.612
718.195,1.611
718.457,1.603
718.718,1.588
718.979,1.579
719.240,1.579
719.502,1.585
719.763,1.589
720.024,1.587
720.286,1.584
720.547,1.573
720.808,1.561
721.069,1.547
721.331,1.542
721.592,1.546
721.853,1.548
722.115,1.552
722.376,1.554
722.638,1.552
722.899,1.547
723.160,1.533
723.422,1.518
723.683,1.503
723.944,1.499
724.206,1.498
724.467,1.496
724.729,1.492
724.990,1.499
725.252,1.508
725.513,1.502
725.775,1.486
726.036,1.474
726.298,1.471
726.559,1.474
726.821,1.469
727.082,1.467
727.344,1.465
727.605,1.464
727.867,1.459
728.128,1.456
728.390,1.457
728.652,1.467
728.913,1.481
729.175,1.490
729.436,1.489
729.698,1.487
729.960,1.481
730.221,1.472
730.483,1.452
730.745,1.445
731.007,1.444
731.268,1.448
731.530,1.449
731.792,1.449
732.054,1.448
732.315,1.450
732.577,1.452
732.839,1.446
733.101,1.436
733.363,1.429
733.625,1.429
733.887,1.433
734.149,1.433
734.411,1.438
734.673,1.439
734.935,1.437
735.197,1.433
735.459,1.435
735.721,1.439
735.983,1.438
736.245,1.428
