Wavelength (nm),Intensity W23.1,,C:/Users/Brend/Desktop/LED Spectras v2/Spectrometer Data (White).sp,,,W23.1,
379.792,2.333,,2018-06-15 13:36:16,,Integration Time,173 ms,
380.000,2.327,,Analyze Light,,Number of Scans to Average,25,
380.209,2.322,,,,Smoothing,1,
380.418,2.332
380.627,2.353
380.837,2.375
381.048,2.390
381.259,2.394
381.471,2.394
381.683,2.401
381.896,2.418
382.110,2.426
382.324,2.439
382.538,2.456
382.753,2.477
382.969,2.476
383.185,2.469
383.402,2.462
383.619,2.477
383.837,2.496
384.055,2.523
384.274,2.540
384.493,2.551
384.712,2.556
384.932,2.571
385.153,2.585
385.374,2.602
385.596,2.612
385.818,2.632
386.040,2.648
386.263,2.668
386.487,2.675
386.710,2.684
386.935,2.676
387.159,2.674
387.385,2.666
387.610,2.668
387.836,2.675
388.063,2.693
388.289,2.711
388.517,2.724
388.744,2.725
388.972,2.737
389.201,2.749
389.430,2.766
389.659,2.777
389.889,2.797
390.119,2.810
390.349,2.820
390.580,2.829
390.811,2.839
391.042,2.841
391.274,2.847
391.507,2.855
391.739,2.862
391.972,2.861
392.205,2.876
392.439,2.900
392.673,2.926
392.907,2.940
393.142,2.956
393.377,2.969
393.612,2.985
393.848,2.990
394.084,3.001
394.320,3.009
394.557,3.027
394.794,3.036
395.031,3.057
395.269,3.076
395.507,3.103
395.745,3.112
395.983,3.120
396.222,3.128
396.461,3.153
396.700,3.180
396.940,3.201
397.180,3.212
397.420,3.214
397.660,3.213
397.901,3.217
398.142,3.225
398.383,3.229
398.625,3.225
398.866,3.232
399.108,3.262
399.351,3.306
399.593,3.319
399.836,3.317
400.079,3.305
400.322,3.311
400.566,3.308
400.809,3.310
401.053,3.314
401.298,3.331
401.542,3.349
401.787,3.374
402.031,3.392
402.277,3.410
402.522,3.416
402.767,3.429
403.013,3.425
403.259,3.435
403.505,3.432
403.752,3.439
403.998,3.443
404.245,3.474
404.492,3.502
404.739,3.525
404.986,3.529
405.234,3.543
405.482,3.551
405.730,3.557
405.978,3.560
406.226,3.565
406.475,3.564
406.723,3.570
406.972,3.586
407.221,3.610
407.470,3.622
407.720,3.633
407.969,3.630
408.219,3.642
408.469,3.655
408.719,3.682
408.969,3.698
409.219,3.718
409.470,3.730
409.720,3.749
409.971,3.759
410.222,3.785
410.473,3.800
410.724,3.812
410.976,3.816
411.227,3.827
411.479,3.836
411.731,3.851
411.983,3.856
412.235,3.867
412.487,3.870
412.740,3.887
412.992,3.898
413.245,3.915
413.497,3.919
413.750,3.930
414.003,3.931
414.257,3.940
414.510,3.947
414.763,3.970
415.017,3.983
415.270,4.000
415.524,4.004
415.778,4.011
416.032,4.014
416.286,4.033
416.540,4.052
416.794,4.083
417.049,4.092
417.303,4.103
417.558,4.109
417.812,4.126
418.067,4.138
418.322,4.147
418.577,4.144
418.832,4.145
419.088,4.140
419.343,4.151
419.598,4.148
419.854,4.163
420.109,4.177
420.365,4.217
420.621,4.240
420.876,4.261
421.132,4.266
421.388,4.275
421.645,4.283
421.901,4.304
422.157,4.323
422.413,4.346
422.670,4.354
422.926,4.375
423.183,4.386
423.439,4.420
423.696,4.451
423.953,4.506
424.210,4.553
424.467,4.588
424.724,4.602
424.981,4.617
425.238,4.652
425.495,4.712
425.753,4.768
426.010,4.821
426.267,4.863
426.525,4.928
426.782,4.990
427.040,5.060
427.298,5.129
427.555,5.216
427.813,5.298
428.071,5.377
428.329,5.445
428.587,5.515
428.845,5.584
429.103,5.672
429.361,5.769
429.619,5.876
429.878,5.982
430.136,6.106
430.394,6.233
430.653,6.380
430.911,6.528
431.170,6.687
431.428,6.828
431.687,6.973
431.946,7.112
432.204,7.267
432.463,7.426
432.722,7.608
432.981,7.792
433.240,7.998
433.499,8.200
433.758,8.421
434.017,8.633
434.276,8.857
434.535,9.078
434.794,9.326
435.053,9.579
435.312,9.849
435.572,10.110
435.831,10.393
436.090,10.699
436.350,11.028
436.609,11.361
436.869,11.693
437.128,12.028
437.388,12.381
437.647,12.750
437.907,13.132
438.166,13.513
438.426,13.912
438.686,14.323
438.946,14.764
439.205,15.218
439.465,15.698
439.725,16.191
439.985,16.703
440.245,17.208
440.505,17.718
440.765,18.225
441.025,18.751
441.285,19.292
441.545,19.860
441.805,20.440
442.065,21.034
442.325,21.650
442.585,22.305
442.846,22.988
443.106,23.703
443.366,24.451
443.626,25.215
443.887,26.000
444.147,26.798
444.407,27.635
444.668,28.494
444.928,29.394
445.189,30.351
445.449,31.361
445.710,32.423
445.970,33.527
446.231,34.694
446.491,35.921
446.752,37.202
447.012,38.538
447.273,39.947
447.534,41.407
447.794,42.902
448.055,44.428
448.316,46.034
448.577,47.735
448.837,49.528
449.098,51.403
449.359,53.340
449.620,55.294
449.881,57.267
450.142,59.270
450.403,61.346
450.664,63.496
450.924,65.706
451.185,67.950
451.446,70.204
451.707,72.447
451.969,74.703
452.230,76.919
452.491,79.092
452.752,81.137
453.013,83.014
453.274,84.642
453.535,85.996
453.796,87.110
454.058,88.043
454.319,88.861
454.580,89.576
454.841,90.210
455.103,90.735
455.364,91.162
455.625,91.501
455.887,91.771
456.148,91.978
456.409,92.121
456.671,92.204
456.932,92.224
457.194,92.177
457.455,92.074
457.716,91.923
457.978,91.727
458.239,91.476
458.501,91.171
458.763,90.799
459.024,90.365
459.286,89.860
459.547,89.273
459.809,88.591
460.071,87.811
460.332,86.932
460.594,85.920
460.856,84.746
461.117,83.361
461.379,81.839
461.641,80.227
461.903,78.603
462.164,76.973
462.426,75.363
462.688,73.804
462.950,72.301
463.212,70.836
463.474,69.391
463.736,67.979
463.998,66.655
464.260,65.433
464.522,64.303
464.784,63.234
465.046,62.234
465.308,61.306
465.570,60.445
465.832,59.629
466.094,58.864
466.356,58.141
466.618,57.467
466.880,56.804
467.142,56.169
467.405,55.567
467.667,55.006
467.929,54.467
468.191,53.938
468.454,53.408
468.716,52.901
468.978,52.378
469.241,51.837
469.503,51.288
469.765,50.763
470.028,50.252
470.290,49.722
470.552,49.168
470.815,48.609
471.077,48.054
471.340,47.497
471.602,46.912
471.865,46.303
472.128,45.671
472.390,45.070
472.653,44.456
472.915,43.833
473.178,43.180
473.441,42.504
473.703,41.823
473.966,41.121
474.229,40.417
474.492,39.690
474.755,38.960
475.017,38.249
475.280,37.561
475.543,36.903
475.806,36.224
476.069,35.534
476.332,34.822
476.595,34.138
476.858,33.482
477.121,32.852
477.384,32.246
477.647,31.663
477.910,31.102
478.173,30.559
478.436,30.029
478.699,29.541
478.962,29.076
479.226,28.650
479.489,28.216
479.752,27.796
480.015,27.382
480.279,27.001
480.542,26.627
480.805,26.276
481.069,25.936
481.332,25.628
481.595,25.341
481.859,25.099
482.122,24.868
482.386,24.639
482.649,24.399
482.913,24.168
483.177,23.948
483.440,23.734
483.704,23.536
483.967,23.371
484.231,23.223
484.495,23.089
484.759,22.944
485.022,22.793
485.286,22.635
485.550,22.475
485.814,22.295
486.078,22.127
486.342,21.968
486.606,21.862
486.869,21.760
487.133,21.676
487.397,21.578
487.662,21.486
487.926,21.370
488.190,21.255
488.454,21.135
488.718,21.035
488.982,20.921
489.246,20.817
489.511,20.705
489.775,20.617
490.039,20.529
490.304,20.444
490.568,20.341
490.832,20.255
491.097,20.183
491.361,20.136
491.626,20.078
491.890,20.029
492.155,19.982
492.419,19.957
492.684,19.917
492.949,19.880
493.213,19.848
493.478,19.847
493.743,19.842
494.008,19.825
494.272,19.812
494.537,19.837
494.802,19.882
495.067,19.937
495.332,19.990
495.597,20.053
495.862,20.101
496.127,20.150
496.392,20.196
496.657,20.257
496.922,20.318
497.187,20.401
497.452,20.506
497.718,20.640
497.983,20.768
498.248,20.891
498.513,20.993
498.779,21.105
499.044,21.212
499.310,21.322
499.575,21.414
499.841,21.526
500.106,21.650
500.372,21.794
500.637,21.939
500.903,22.104
501.168,22.264
501.434,22.410
501.700,22.516
501.966,22.630
502.231,22.754
502.497,22.902
502.763,23.036
503.029,23.165
503.295,23.300
503.561,23.449
503.827,23.606
504.093,23.762
504.359,23.907
504.625,24.057
504.891,24.195
505.157,24.346
505.423,24.483
505.690,24.618
505.956,24.754
506.222,24.915
506.489,25.101
506.755,25.287
507.021,25.453
507.288,25.610
507.554,25.757
507.821,25.916
508.087,26.072
508.354,26.243
508.621,26.397
508.887,26.541
509.154,26.676
509.421,26.821
509.687,26.955
509.954,27.100
510.221,27.245
510.488,27.415
510.755,27.576
511.022,27.745
511.289,27.887
511.556,28.025
511.823,28.143
512.090,28.277
512.357,28.399
512.624,28.529
512.891,28.655
513.159,28.786
513.426,28.907
513.693,29.032
513.960,29.163
514.228,29.297
514.495,29.417
514.763,29.554
515.030,29.698
515.298,29.840
515.565,29.970
515.833,30.099
516.100,30.212
516.368,30.308
516.636,30.381
516.904,30.481
517.171,30.573
517.439,30.682
517.707,30.786
517.975,30.910
518.243,31.026
518.511,31.144
518.779,31.243
519.047,31.361
519.315,31.471
519.583,31.570
519.851,31.642
520.119,31.716
520.387,31.816
520.656,31.928
520.924,32.039
521.192,32.135
521.461,32.210
521.729,32.277
521.997,32.340
522.266,32.407
522.534,32.474
522.803,32.557
523.071,32.653
523.340,32.757
523.609,32.845
523.877,32.936
524.146,33.025
524.415,33.121
524.684,33.214
524.952,33.302
525.221,33.380
525.490,33.461
525.759,33.531
526.028,33.592
526.297,33.622
526.566,33.670
526.835,33.724
527.104,33.802
527.373,33.866
527.642,33.922
527.912,33.950
528.181,33.985
528.450,34.036
528.719,34.099
528.989,34.159
529.258,34.214
529.528,34.259
529.797,34.286
530.067,34.321
530.336,34.362
530.606,34.412
530.875,34.437
531.145,34.459
531.414,34.488
531.684,34.529
531.954,34.571
532.224,34.604
532.493,34.628
532.763,34.652
533.033,34.679
533.303,34.711
533.573,34.748
533.843,34.774
534.113,34.812
534.383,34.826
534.653,34.855
534.923,34.880
535.193,34.915
535.463,34.947
535.733,34.975
536.004,35.009
536.274,35.037
536.544,35.049
536.814,35.062
537.085,35.081
537.355,35.130
537.626,35.183
537.896,35.235
538.166,35.259
538.437,35.275
538.707,35.289
538.978,35.339
539.249,35.409
539.519,35.489
539.790,35.542
540.061,35.581
540.331,35.601
540.602,35.613
540.873,35.613
541.144,35.624
541.414,35.638
541.685,35.667
541.956,35.689
542.227,35.718
542.498,35.738
542.769,35.767
543.040,35.804
543.311,35.866
543.582,35.933
543.853,36.006
544.124,36.057
544.396,36.104
544.667,36.135
544.938,36.149
545.209,36.112
545.480,36.064
545.752,36.007
546.023,35.987
546.294,35.956
546.566,35.945
546.837,35.930
547.109,35.939
547.380,35.949
547.652,35.962
547.923,35.973
548.195,35.996
548.466,36.017
548.738,36.015
549.009,35.980
549.281,35.936
549.553,35.888
549.824,35.846
550.096,35.827
550.368,35.834
550.640,35.847
550.911,35.850
551.183,35.858
551.455,35.880
551.727,35.882
551.999,35.856
552.271,35.810
552.543,35.782
552.815,35.771
553.087,35.778
553.359,35.782
553.631,35.773
553.903,35.740
554.175,35.685
554.447,35.625
554.719,35.578
554.991,35.546
555.263,35.519
555.535,35.489
555.808,35.465
556.080,35.446
556.352,35.432
556.624,35.408
556.897,35.365
557.169,35.310
557.441,35.241
557.714,35.162
557.986,35.099
558.258,35.053
558.531,35.052
558.803,35.048
559.076,35.026
559.348,34.975
559.621,34.914
559.893,34.861
560.166,34.814
560.438,34.764
560.711,34.725
560.983,34.701
561.256,34.706
561.528,34.713
561.801,34.702
562.074,34.659
562.346,34.615
562.619,34.569
562.892,34.525
563.164,34.477
563.437,34.456
563.710,34.438
563.983,34.409
564.255,34.359
564.528,34.337
564.801,34.341
565.074,34.352
565.346,34.318
565.619,34.276
565.892,34.225
566.165,34.167
566.438,34.069
566.711,33.962
566.984,33.871
567.257,33.809
567.529,33.765
567.802,33.755
568.075,33.741
568.348,33.706
568.621,33.645
568.894,33.574
569.167,33.500
569.440,33.419
569.713,33.324
569.986,33.232
570.259,33.117
570.532,33.014
570.805,32.917
571.078,32.848
571.351,32.795
571.625,32.754
571.898,32.691
572.171,32.608
572.444,32.512
572.717,32.430
572.990,32.349
573.263,32.248
573.536,32.123
573.809,32.004
574.083,31.915
574.356,31.870
574.629,31.842
574.902,31.798
575.175,31.723
575.448,31.615
575.721,31.502
575.995,31.402
576.268,31.329
576.541,31.291
576.814,31.258
577.087,31.220
577.361,31.162
577.634,31.100
577.907,31.029
578.180,30.953
578.453,30.871
578.727,30.793
579.000,30.704
579.273,30.632
579.546,30.583
579.820,30.562
580.093,30.522
580.366,30.470
580.639,30.408
580.913,30.367
581.186,30.310
581.459,30.241
581.732,30.140
582.005,30.050
582.279,29.942
582.552,29.841
582.825,29.723
583.098,29.620
583.372,29.541
583.645,29.501
583.918,29.490
584.191,29.478
584.464,29.448
584.738,29.394
585.011,29.315
585.284,29.221
585.557,29.114
585.831,29.012
586.104,28.919
586.377,28.858
586.650,28.805
586.923,28.757
587.196,28.703
587.470,28.661
587.743,28.627
588.016,28.590
588.289,28.529
588.562,28.445
588.835,28.338
589.109,28.227
589.382,28.123
589.655,28.042
589.928,27.979
590.201,27.926
590.474,27.881
590.747,27.842
591.020,27.796
591.293,27.736
591.567,27.644
591.840,27.530
592.113,27.394
592.386,27.255
592.659,27.124
592.932,27.022
593.205,26.946
593.478,26.880
593.751,26.816
594.024,26.766
594.297,26.710
594.570,26.625
594.843,26.518
595.116,26.407
595.389,26.299
595.662,26.188
595.934,26.078
596.207,25.985
596.480,25.901
596.753,25.832
597.026,25.758
597.299,25.687
597.572,25.614
597.844,25.535
598.117,25.422
598.390,25.290
598.663,25.145
598.936,25.011
599.208,24.887
599.481,24.778
599.754,24.682
600.026,24.589
600.299,24.498
600.572,24.408
600.844,24.302
601.117,24.181
601.390,24.049
601.662,23.922
601.935,23.786
602.207,23.650
602.480,23.512
602.752,23.386
603.025,23.250
603.297,23.127
603.570,23.017
603.842,22.941
604.115,22.856
604.387,22.768
604.660,22.645
604.932,22.522
605.204,22.400
605.477,22.294
605.749,22.185
606.021,22.074
606.294,21.944
606.566,21.797
606.838,21.659
607.110,21.550
607.383,21.466
607.655,21.387
607.927,21.318
608.199,21.255
608.471,21.181
608.743,21.074
609.015,20.940
609.287,20.803
609.559,20.675
609.831,20.564
610.103,20.445
610.375,20.321
610.647,20.183
610.919,20.047
611.191,19.919
611.463,19.807
611.735,19.681
612.007,19.545
612.278,19.409
612.550,19.298
612.822,19.186
613.094,19.073
613.365,18.935
613.637,18.809
613.909,18.670
614.180,18.542
614.452,18.407
614.723,18.284
614.995,18.162
615.266,18.059
615.538,17.969
615.809,17.886
616.081,17.779
616.352,17.661
616.623,17.528
616.895,17.406
617.166,17.270
617.437,17.137
617.709,17.005
617.980,16.907
618.251,16.823
618.522,16.751
618.793,16.679
619.065,16.628
619.336,16.560
619.607,16.471
619.878,16.365
620.149,16.265
620.420,16.143
620.691,16.010
620.962,15.886
621.232,15.795
621.503,15.698
621.774,15.606
622.045,15.514
622.316,15.460
622.586,15.405
622.857,15.359
623.128,15.273
623.398,15.169
623.669,15.044
623.940,14.929
624.210,14.811
624.481,14.716
624.751,14.624
625.021,14.551
625.292,14.470
625.562,14.415
625.833,14.359
626.103,14.308
626.373,14.236
626.643,14.170
626.914,14.088
627.184,14.005
627.454,13.908
627.724,13.817
627.994,13.729
628.264,13.643
628.534,13.552
628.804,13.471
629.074,13.404
629.344,13.357
629.614,13.312
629.884,13.269
630.154,13.218
630.424,13.156
630.693,13.083
630.963,13.001
631.233,12.916
631.502,12.841
631.772,12.771
632.041,12.698
632.311,12.601
632.581,12.498
632.850,12.402
633.119,12.317
633.389,12.245
633.658,12.191
633.928,12.163
634.197,12.146
634.466,12.119
634.735,12.080
635.004,12.011
635.274,11.932
635.543,11.841
635.812,11.761
636.081,11.690
636.350,11.631
636.619,11.578
636.888,11.517
637.157,11.450
637.426,11.389
637.694,11.336
637.963,11.288
638.232,11.237
638.501,11.187
638.769,11.133
639.038,11.075
639.307,11.019
639.575,10.961
639.844,10.883
640.112,10.795
640.381,10.699
640.649,10.622
640.917,10.561
641.186,10.515
641.454,10.475
641.722,10.422
641.991,10.369
642.259,10.300
642.527,10.234
642.795,10.173
643.063,10.110
643.331,10.053
643.599,9.999
643.867,9.972
644.135,9.941
644.403,9.909
644.671,9.856
644.939,9.807
645.206,9.750
645.474,9.698
645.742,9.638
646.009,9.568
646.277,9.503
646.545,9.439
646.812,9.398
647.080,9.356
647.347,9.304
647.615,9.233
647.882,9.147
648.149,9.067
648.417,8.993
648.684,8.933
648.951,8.885
649.219,8.848
649.486,8.810
649.753,8.765
650.020,8.706
650.287,8.647
650.554,8.575
650.821,8.503
651.088,8.420
651.355,8.366
651.622,8.310
651.889,8.261
652.155,8.199
652.422,8.153
652.689,8.116
652.956,8.077
653.222,8.036
653.489,8.008
653.755,7.965
654.022,7.894
654.288,7.792
654.555,7.698
654.821,7.630
655.088,7.586
655.354,7.548
655.620,7.508
655.887,7.457
656.153,7.410
656.419,7.360
656.685,7.313
656.951,7.263
657.217,7.205
657.483,7.141
657.749,7.079
658.015,7.031
658.281,6.985
658.547,6.930
658.813,6.870
659.079,6.803
659.345,6.736
659.610,6.672
659.876,6.621
660.142,6.577
660.407,6.539
660.673,6.496
660.939,6.465
661.204,6.422
661.470,6.379
661.735,6.330
662.000,6.294
662.266,6.255
662.531,6.214
662.796,6.167
663.062,6.114
663.327,6.052
663.592,6.000
663.857,5.961
664.122,5.929
664.388,5.886
664.653,5.847
664.918,5.814
665.183,5.784
665.448,5.749
665.712,5.713
665.977,5.683
666.242,5.649
666.507,5.590
666.772,5.524
667.037,5.462
667.301,5.422
667.566,5.382
667.831,5.348
668.095,5.316
668.360,5.295
668.624,5.252
668.889,5.223
669.153,5.184
669.418,5.157
669.682,5.126
669.946,5.102
670.211,5.089
670.475,5.066
670.739,5.043
671.004,5.016
671.268,4.999
671.532,4.985
671.796,4.926
672.060,4.867
672.324,4.800
672.588,4.778
672.852,4.759
673.116,4.767
673.380,4.779
673.644,4.724
673.908,4.637
674.172,4.540
674.436,4.508
674.700,4.482
674.963,4.460
675.227,4.430
675.491,4.387
675.754,4.343
676.018,4.300
676.282,4.276
676.545,4.247
676.809,4.214
677.072,4.173
677.336,4.132
677.599,4.101
677.863,4.073
678.126,4.050
678.389,4.035
678.653,4.021
678.916,4.002
679.179,3.970
679.442,3.937
679.706,3.912
679.969,3.892
680.232,3.869
680.495,3.854
680.758,3.842
681.021,3.819
681.284,3.780
681.547,3.737
681.810,3.713
682.073,3.710
682.336,3.706
682.599,3.691
682.862,3.662
683.125,3.637
683.388,3.619
683.651,3.601
683.913,3.581
684.176,3.544
684.439,3.502
684.702,3.458
684.964,3.427
685.227,3.410
685.490,3.402
685.752,3.403
686.015,3.387
686.277,3.360
686.540,3.321
686.802,3.286
687.065,3.264
687.327,3.251
687.590,3.243
687.852,3.222
688.115,3.190
688.377,3.162
688.639,3.143
688.902,3.127
689.164,3.111
689.426,3.100
689.689,3.090
689.951,3.069
690.213,3.042
690.475,3.015
690.737,2.991
691.000,2.965
691.262,2.941
691.524,2.927
691.786,2.923
692.048,2.922
692.310,2.911
692.572,2.886
692.834,2.850
693.096,2.827
693.358,2.819
693.620,2.822
693.882,2.825
694.144,2.816
694.406,2.793
694.668,2.768
694.930,2.742
695.192,2.718
695.453,2.698
695.715,2.686
695.977,2.671
696.239,2.647
696.501,2.632
696.762,2.634
697.024,2.634
697.286,2.614
697.548,2.587
697.809,2.566
698.071,2.552
698.333,2.539
698.594,2.522
698.856,2.514
699.118,2.505
699.379,2.497
699.641,2.489
699.902,2.479
700.164,2.464
700.426,2.442
700.687,2.418
700.949,2.403
701.210,2.392
701.472,2.380
701.733,2.364
701.995,2.355
702.256,2.348
702.518,2.339
702.779,2.326
703.041,2.327
703.302,2.335
703.563,2.331
703.825,2.309
704.086,2.284
704.348,2.270
704.609,2.267
704.871,2.273
705.132,2.282
705.393,2.271
705.655,2.256
705.916,2.242
706.177,2.237
706.439,2.227
706.700,2.216
706.961,2.207
707.223,2.197
707.484,2.170
707.745,2.142
708.007,2.112
708.268,2.088
708.529,2.065
708.790,2.034
709.052,2.013
709.313,2.003
709.574,2.000
709.835,1.991
710.097,1.969
710.358,1.939
710.619,1.917
710.881,1.899
711.142,1.887
711.403,1.871
711.664,1.864
711.926,1.853
712.187,1.853
712.448,1.854
712.709,1.860
712.970,1.859
713.232,1.850
713.493,1.844
713.754,1.838
714.015,1.834
714.277,1.834
714.538,1.835
714.799,1.843
715.060,1.843
715.322,1.837
715.583,1.820
715.844,1.806
716.105,1.792
716.367,1.781
716.628,1.772
716.889,1.764
717.150,1.748
717.411,1.723
717.673,1.706
717.934,1.700
718.195,1.699
718.457,1.691
718.718,1.673
718.979,1.664
719.240,1.665
719.502,1.675
719.763,1.681
720.024,1.682
720.286,1.678
720.547,1.662
720.808,1.648
721.069,1.638
721.331,1.643
721.592,1.654
721.853,1.660
722.115,1.657
722.376,1.652
722.638,1.644
722.899,1.638
723.160,1.626
723.422,1.615
723.683,1.606
723.944,1.608
724.206,1.610
724.467,1.608
724.729,1.603
724.990,1.609
725.252,1.617
725.513,1.610
725.775,1.590
726.036,1.573
726.298,1.569
726.559,1.573
726.821,1.572
727.082,1.572
727.344,1.573
727.605,1.578
727.867,1.572
728.128,1.569
728.390,1.567
728.652,1.579
728.913,1.595
729.175,1.602
729.436,1.598
729.698,1.595
729.960,1.589
730.221,1.582
730.483,1.566
730.745,1.561
731.007,1.558
731.268,1.556
731.530,1.556
731.792,1.555
732.054,1.558
732.315,1.560
732.577,1.563
732.839,1.559
733.101,1.548
733.363,1.538
733.625,1.534
733.887,1.536
734.149,1.536
734.411,1.546
734.673,1.554
734.935,1.557
735.197,1.547
735.459,1.546
735.721,1.549
735.983,1.546
