Wavelength (nm),Intensity W21.3,,C:/Users/Brend/Desktop/LED Spectras v2/Spectrometer Data (White).sp,,,W21.3,
379.792,2.338,,2018-06-15 13:23:11,,Integration Time,198 ms,
380.000,2.329,,Analyze Light,,Number of Scans to Average,25,
380.209,2.319,,,,Smoothing,1,
380.418,2.328
380.627,2.351
380.837,2.376
381.048,2.392
381.259,2.393
381.471,2.391
381.683,2.396
381.896,2.415
382.110,2.429
382.324,2.447
382.538,2.467
382.753,2.488
382.969,2.477
383.185,2.462
383.402,2.447
383.619,2.460
383.837,2.480
384.055,2.512
384.274,2.531
384.493,2.541
384.712,2.543
384.932,2.554
385.153,2.569
385.374,2.584
385.596,2.595
385.818,2.613
386.040,2.632
386.263,2.657
386.487,2.668
386.710,2.678
386.935,2.672
387.159,2.674
387.385,2.668
387.610,2.667
387.836,2.666
388.063,2.674
388.289,2.684
388.517,2.694
388.744,2.699
388.972,2.720
389.201,2.732
389.430,2.749
389.659,2.757
389.889,2.777
390.119,2.794
390.349,2.811
390.580,2.825
390.811,2.835
391.042,2.837
391.274,2.840
391.507,2.845
391.739,2.843
391.972,2.837
392.205,2.845
392.439,2.866
392.673,2.889
392.907,2.904
393.142,2.924
393.377,2.940
393.612,2.958
393.848,2.963
394.084,2.974
394.320,2.975
394.557,2.987
394.794,2.993
395.031,3.014
395.269,3.037
395.507,3.064
395.745,3.073
395.983,3.078
396.222,3.083
396.461,3.118
396.700,3.151
396.940,3.181
397.180,3.190
397.420,3.188
397.660,3.183
397.901,3.178
398.142,3.182
398.383,3.186
398.625,3.185
398.866,3.198
399.108,3.229
399.351,3.281
399.593,3.300
399.836,3.308
400.079,3.293
400.322,3.286
400.566,3.273
400.809,3.270
401.053,3.274
401.298,3.286
401.542,3.303
401.787,3.327
402.031,3.343
402.277,3.361
402.522,3.366
402.767,3.383
403.013,3.382
403.259,3.396
403.505,3.398
403.752,3.407
403.998,3.408
404.245,3.432
404.492,3.461
404.739,3.484
404.986,3.493
405.234,3.503
405.482,3.512
405.730,3.515
405.978,3.514
406.226,3.515
406.475,3.514
406.723,3.519
406.972,3.534
407.221,3.564
407.470,3.583
407.720,3.600
407.969,3.593
408.219,3.608
408.469,3.624
408.719,3.651
408.969,3.660
409.219,3.675
409.470,3.692
409.720,3.720
409.971,3.743
410.222,3.770
410.473,3.776
410.724,3.774
410.976,3.770
411.227,3.786
411.479,3.801
411.731,3.820
411.983,3.823
412.235,3.834
412.487,3.835
412.740,3.848
412.992,3.856
413.245,3.875
413.497,3.884
413.750,3.897
414.003,3.894
414.257,3.892
414.510,3.886
414.763,3.901
415.017,3.916
415.270,3.934
415.524,3.939
415.778,3.948
416.032,3.958
416.286,3.985
416.540,4.010
416.794,4.040
417.049,4.049
417.303,4.061
417.558,4.070
417.812,4.082
418.067,4.091
418.322,4.101
418.577,4.108
418.832,4.112
419.088,4.099
419.343,4.105
419.598,4.104
419.854,4.123
420.109,4.138
420.365,4.174
420.621,4.194
420.876,4.217
421.132,4.226
421.388,4.239
421.645,4.246
421.901,4.263
422.157,4.282
422.413,4.309
422.670,4.328
422.926,4.350
423.183,4.361
423.439,4.389
423.696,4.417
423.953,4.472
424.210,4.516
424.467,4.544
424.724,4.545
424.981,4.548
425.238,4.572
425.495,4.625
425.753,4.673
426.010,4.720
426.267,4.754
426.525,4.816
426.782,4.879
427.040,4.945
427.298,5.008
427.555,5.082
427.813,5.146
428.071,5.210
428.329,5.268
428.587,5.339
428.845,5.407
429.103,5.481
429.361,5.560
429.619,5.645
429.878,5.736
430.136,5.846
430.394,5.950
430.653,6.080
430.911,6.217
431.170,6.377
431.428,6.508
431.687,6.636
431.946,6.753
432.204,6.891
432.463,7.040
432.722,7.199
432.981,7.359
433.240,7.541
433.499,7.737
433.758,7.949
434.017,8.138
434.276,8.331
434.535,8.517
434.794,8.727
435.053,8.951
435.312,9.205
435.572,9.453
435.831,9.718
436.090,9.989
436.350,10.294
436.609,10.597
436.869,10.906
437.128,11.207
437.388,11.524
437.647,11.847
437.907,12.210
438.166,12.581
438.426,12.963
438.686,13.337
438.946,13.736
439.205,14.155
439.465,14.610
439.725,15.079
439.985,15.569
440.245,16.052
440.505,16.544
440.765,17.035
441.025,17.531
441.285,18.036
441.545,18.562
441.805,19.112
442.065,19.674
442.325,20.262
442.585,20.889
442.846,21.539
443.106,22.227
443.366,22.938
443.626,23.670
443.887,24.407
444.147,25.159
444.407,25.949
444.668,26.777
444.928,27.640
445.189,28.540
445.449,29.484
445.710,30.459
445.970,31.478
446.231,32.545
446.491,33.688
446.752,34.883
447.012,36.116
447.273,37.392
447.534,38.706
447.794,40.065
448.055,41.468
448.316,42.961
448.577,44.533
448.837,46.177
449.098,47.882
449.359,49.644
449.620,51.447
449.881,53.282
450.142,55.152
450.403,57.096
450.664,59.110
450.924,61.196
451.185,63.324
451.446,65.492
451.707,67.671
451.969,69.862
452.230,72.052
452.491,74.233
452.752,76.364
453.013,78.425
453.274,80.413
453.535,82.281
453.796,83.937
454.058,85.341
454.319,86.514
454.580,87.518
454.841,88.383
455.103,89.136
455.364,89.776
455.625,90.350
455.887,90.850
456.148,91.288
456.409,91.642
456.671,91.921
456.932,92.138
457.194,92.288
457.455,92.380
457.716,92.416
457.978,92.409
458.239,92.359
458.501,92.281
458.763,92.162
459.024,92.004
459.286,91.794
459.547,91.530
459.809,91.195
460.071,90.789
460.332,90.333
460.594,89.829
460.856,89.276
461.117,88.653
461.379,87.964
461.641,87.198
461.903,86.325
462.164,85.316
462.426,84.161
462.688,82.869
462.950,81.482
463.212,80.047
463.474,78.582
463.736,77.108
463.998,75.651
464.260,74.244
464.522,72.908
464.784,71.611
465.046,70.355
465.308,69.151
465.570,68.009
465.832,66.933
466.094,65.919
466.356,64.956
466.618,64.036
466.880,63.141
467.142,62.296
467.405,61.508
467.667,60.788
467.929,60.093
468.191,59.435
468.454,58.778
468.716,58.144
468.978,57.490
469.241,56.839
469.503,56.206
469.765,55.609
470.028,55.020
470.290,54.436
470.552,53.845
470.815,53.270
471.077,52.698
471.340,52.136
471.602,51.572
471.865,50.985
472.128,50.394
472.390,49.817
472.653,49.254
472.915,48.681
473.178,48.082
473.441,47.468
473.703,46.835
473.966,46.178
474.229,45.492
474.492,44.794
474.755,44.079
475.017,43.390
475.280,42.705
475.543,42.052
475.806,41.355
476.069,40.645
476.332,39.914
476.595,39.212
476.858,38.516
477.121,37.817
477.384,37.126
477.647,36.454
477.910,35.817
478.173,35.193
478.436,34.578
478.699,33.984
478.962,33.404
479.226,32.871
479.489,32.349
479.752,31.848
480.015,31.340
480.279,30.849
480.542,30.361
480.805,29.890
481.069,29.438
481.332,29.033
481.595,28.662
481.859,28.337
482.122,28.014
482.386,27.693
482.649,27.360
482.913,27.043
483.177,26.740
483.440,26.449
483.704,26.177
483.967,25.947
484.231,25.743
484.495,25.564
484.759,25.377
485.022,25.181
485.286,24.969
485.550,24.756
485.814,24.534
486.078,24.332
486.342,24.153
486.606,24.020
486.869,23.896
487.133,23.782
487.397,23.664
487.662,23.539
487.926,23.399
488.190,23.267
488.454,23.139
488.718,23.023
488.982,22.894
489.246,22.779
489.511,22.654
489.775,22.542
490.039,22.426
490.304,22.315
490.568,22.191
490.832,22.084
491.097,21.996
491.361,21.938
491.626,21.875
491.890,21.811
492.155,21.740
492.419,21.687
492.684,21.628
492.949,21.575
493.213,21.525
493.478,21.504
493.743,21.479
494.008,21.435
494.272,21.382
494.537,21.356
494.802,21.357
495.067,21.383
495.332,21.411
495.597,21.456
495.862,21.480
496.127,21.510
496.392,21.532
496.657,21.567
496.922,21.604
497.187,21.667
497.452,21.745
497.718,21.851
497.983,21.946
498.248,22.037
498.513,22.109
498.779,22.209
499.044,22.314
499.310,22.400
499.575,22.465
499.841,22.552
500.106,22.665
500.372,22.776
500.637,22.884
500.903,23.023
501.168,23.165
501.434,23.302
501.700,23.411
501.966,23.544
502.231,23.680
502.497,23.825
502.763,23.941
503.029,24.062
503.295,24.194
503.561,24.344
503.827,24.493
504.093,24.633
504.359,24.765
504.625,24.909
504.891,25.056
505.157,25.220
505.423,25.354
505.690,25.484
505.956,25.612
506.222,25.777
506.489,25.958
506.755,26.141
507.021,26.302
507.288,26.466
507.554,26.613
507.821,26.773
508.087,26.908
508.354,27.066
508.621,27.209
508.887,27.355
509.154,27.486
509.421,27.620
509.687,27.751
509.954,27.877
510.221,27.999
510.488,28.149
510.755,28.314
511.022,28.488
511.289,28.628
511.556,28.754
511.823,28.864
512.090,28.992
512.357,29.110
512.624,29.240
512.891,29.359
513.159,29.490
513.426,29.625
513.693,29.783
513.960,29.939
514.228,30.090
514.495,30.218
514.763,30.334
515.030,30.439
515.298,30.550
515.565,30.679
515.833,30.813
516.100,30.929
516.368,31.029
516.636,31.102
516.904,31.188
517.171,31.274
517.439,31.387
517.707,31.508
517.975,31.655
518.243,31.810
518.511,31.948
518.779,32.040
519.047,32.130
519.315,32.211
519.583,32.299
519.851,32.367
520.119,32.453
520.387,32.551
520.656,32.660
520.924,32.756
521.192,32.842
521.461,32.916
521.729,33.005
521.997,33.097
522.266,33.197
522.534,33.283
522.803,33.362
523.071,33.442
523.340,33.520
523.609,33.599
523.877,33.679
524.146,33.763
524.415,33.854
524.684,33.939
524.952,34.016
525.221,34.079
525.490,34.149
525.759,34.212
526.028,34.284
526.297,34.333
526.566,34.400
526.835,34.465
527.104,34.547
527.373,34.608
527.642,34.650
527.912,34.674
528.181,34.712
528.450,34.768
528.719,34.844
528.989,34.927
529.258,35.007
529.528,35.061
529.797,35.091
530.067,35.126
530.336,35.163
530.606,35.197
530.875,35.212
531.145,35.224
531.414,35.250
531.684,35.300
531.954,35.342
532.224,35.366
532.493,35.371
532.763,35.396
533.033,35.446
533.303,35.496
533.573,35.544
533.843,35.562
534.113,35.579
534.383,35.574
534.653,35.601
534.923,35.653
535.193,35.715
535.463,35.752
535.733,35.761
536.004,35.772
536.274,35.802
536.544,35.829
536.814,35.860
537.085,35.893
537.355,35.953
537.626,36.005
537.896,36.033
538.166,36.040
538.437,36.058
538.707,36.092
538.978,36.151
539.249,36.227
539.519,36.309
539.790,36.364
540.061,36.394
540.331,36.424
540.602,36.470
540.873,36.509
541.144,36.539
541.414,36.552
541.685,36.583
541.956,36.611
542.227,36.651
542.498,36.684
542.769,36.728
543.040,36.775
543.311,36.825
543.582,36.883
543.853,36.947
544.124,37.008
544.396,37.060
544.667,37.088
544.938,37.102
545.209,37.060
545.480,37.014
545.752,36.969
546.023,36.966
546.294,36.949
546.566,36.937
546.837,36.919
547.109,36.911
547.380,36.884
547.652,36.863
547.923,36.845
548.195,36.857
548.466,36.874
548.738,36.899
549.009,36.880
549.281,36.837
549.553,36.771
549.824,36.718
550.096,36.683
550.368,36.675
550.640,36.691
550.911,36.720
551.183,36.746
551.455,36.777
551.727,36.790
551.999,36.768
552.271,36.706
552.543,36.655
552.815,36.622
553.087,36.617
553.359,36.613
553.631,36.594
553.903,36.548
554.175,36.497
554.447,36.455
554.719,36.425
554.991,36.391
555.263,36.368
555.535,36.340
555.808,36.315
556.080,36.284
556.352,36.264
556.624,36.237
556.897,36.198
557.169,36.149
557.441,36.091
557.714,36.042
557.986,36.003
558.258,35.972
558.531,35.950
558.803,35.925
559.076,35.900
559.348,35.845
559.621,35.785
559.893,35.720
560.166,35.684
560.438,35.657
560.711,35.642
560.983,35.628
561.256,35.625
561.528,35.609
561.801,35.575
562.074,35.514
562.346,35.458
562.619,35.408
562.892,35.361
563.164,35.306
563.437,35.264
563.710,35.220
563.983,35.169
564.255,35.108
564.528,35.095
564.801,35.116
565.074,35.148
565.346,35.121
565.619,35.072
565.892,35.001
566.165,34.930
566.438,34.833
566.711,34.734
566.984,34.642
567.257,34.572
567.529,34.520
567.802,34.499
568.075,34.477
568.348,34.444
568.621,34.394
568.894,34.333
569.167,34.269
569.440,34.196
569.713,34.098
569.986,34.010
570.259,33.901
570.532,33.820
570.805,33.736
571.078,33.680
571.351,33.635
571.625,33.597
571.898,33.537
572.171,33.453
572.444,33.346
572.717,33.244
572.990,33.144
573.263,33.027
573.536,32.903
573.809,32.788
574.083,32.710
574.356,32.663
574.629,32.643
574.902,32.619
575.175,32.577
575.448,32.488
575.721,32.376
575.995,32.262
576.268,32.158
576.541,32.086
576.814,32.022
577.087,31.980
577.361,31.942
577.634,31.909
577.907,31.846
578.180,31.750
578.453,31.649
578.727,31.566
579.000,31.481
579.273,31.398
579.546,31.333
579.820,31.298
580.093,31.266
580.366,31.222
580.639,31.161
580.913,31.108
581.186,31.048
581.459,30.988
581.732,30.899
582.005,30.815
582.279,30.722
582.552,30.645
582.825,30.561
583.098,30.481
583.372,30.405
583.645,30.357
583.918,30.331
584.191,30.314
584.464,30.284
584.738,30.244
585.011,30.175
585.284,30.081
585.557,29.949
585.831,29.819
586.104,29.701
586.377,29.633
586.650,29.579
586.923,29.536
587.196,29.496
587.470,29.460
587.743,29.418
588.016,29.357
588.289,29.281
588.562,29.203
588.835,29.108
589.109,29.003
589.382,28.894
589.655,28.800
589.928,28.728
590.201,28.669
590.474,28.634
590.747,28.594
591.020,28.537
591.293,28.443
591.567,28.334
591.840,28.202
592.113,28.061
592.386,27.912
592.659,27.770
592.932,27.661
593.205,27.582
593.478,27.528
593.751,27.474
594.024,27.436
594.297,27.373
594.570,27.292
594.843,27.190
595.116,27.099
595.389,27.004
595.662,26.909
595.934,26.816
596.207,26.736
596.480,26.658
596.753,26.592
597.026,26.512
597.299,26.438
597.572,26.359
597.844,26.278
598.117,26.166
598.390,26.036
598.663,25.886
598.936,25.740
599.208,25.592
599.481,25.469
599.754,25.365
600.026,25.264
600.299,25.164
600.572,25.069
600.844,24.961
601.117,24.842
601.390,24.702
601.662,24.579
601.935,24.446
602.207,24.310
602.480,24.153
602.752,24.006
603.025,23.861
603.297,23.755
603.570,23.673
603.842,23.624
604.115,23.553
604.387,23.468
604.660,23.345
604.932,23.222
605.204,23.092
605.477,22.972
605.749,22.845
606.021,22.715
606.294,22.580
606.566,22.452
606.838,22.342
607.110,22.251
607.383,22.182
607.655,22.126
607.927,22.071
608.199,22.008
608.471,21.915
608.743,21.798
609.015,21.656
609.287,21.518
609.559,21.379
609.831,21.261
610.103,21.142
610.375,21.020
610.647,20.875
610.919,20.731
611.191,20.595
611.463,20.470
611.735,20.335
612.007,20.190
612.278,20.042
612.550,19.914
612.822,19.788
613.094,19.668
613.365,19.527
613.637,19.403
613.909,19.267
614.180,19.140
614.452,18.994
614.723,18.854
614.995,18.716
615.266,18.601
615.538,18.498
615.809,18.408
616.081,18.302
616.352,18.187
616.623,18.055
616.895,17.929
617.166,17.788
617.437,17.644
617.709,17.501
617.980,17.388
618.251,17.296
618.522,17.220
618.793,17.153
619.065,17.108
619.336,17.036
619.607,16.935
619.878,16.816
620.149,16.713
620.420,16.602
620.691,16.478
620.962,16.356
621.232,16.268
621.503,16.171
621.774,16.080
622.045,15.989
622.316,15.935
622.586,15.881
622.857,15.829
623.128,15.743
623.398,15.652
623.669,15.541
623.940,15.431
624.210,15.310
624.481,15.209
624.751,15.107
625.021,15.013
625.292,14.910
625.562,14.845
625.833,14.783
626.103,14.735
626.373,14.661
626.643,14.594
626.914,14.507
627.184,14.434
627.454,14.355
627.724,14.275
627.994,14.181
628.264,14.080
628.534,13.980
628.804,13.893
629.074,13.818
629.344,13.758
629.614,13.699
629.884,13.645
630.154,13.589
630.424,13.527
630.693,13.452
630.963,13.366
631.233,13.275
631.502,13.192
631.772,13.118
632.041,13.044
632.311,12.959
632.581,12.871
632.850,12.785
633.119,12.702
633.389,12.624
633.658,12.558
633.928,12.517
634.197,12.497
634.466,12.479
634.735,12.447
635.004,12.380
635.274,12.299
635.543,12.210
635.812,12.131
636.081,12.058
636.350,11.993
636.619,11.927
636.888,11.861
637.157,11.797
637.426,11.744
637.694,11.690
637.963,11.628
638.232,11.567
638.501,11.505
638.769,11.451
639.038,11.394
639.307,11.336
639.575,11.278
639.844,11.203
640.112,11.119
640.381,11.023
640.649,10.944
640.917,10.880
641.186,10.821
641.454,10.762
641.722,10.703
641.991,10.649
642.259,10.584
642.527,10.511
642.795,10.449
643.063,10.381
643.331,10.323
643.599,10.267
643.867,10.246
644.135,10.225
644.403,10.207
644.671,10.156
644.939,10.105
645.206,10.042
645.474,9.990
645.742,9.928
646.009,9.858
646.277,9.793
646.545,9.736
646.812,9.700
647.080,9.659
647.347,9.611
647.615,9.538
647.882,9.446
648.149,9.356
648.417,9.279
648.684,9.223
648.951,9.182
649.219,9.144
649.486,9.102
649.753,9.047
650.020,8.978
650.287,8.904
650.554,8.825
650.821,8.757
651.088,8.690
651.355,8.636
651.622,8.571
651.889,8.517
652.155,8.458
652.422,8.416
652.689,8.376
652.956,8.335
653.222,8.294
653.489,8.260
653.755,8.214
654.022,8.149
654.288,8.060
654.555,7.972
654.821,7.898
655.088,7.837
655.354,7.789
655.620,7.753
655.887,7.709
656.153,7.658
656.419,7.596
656.685,7.536
656.951,7.480
657.217,7.425
657.483,7.369
657.749,7.306
658.015,7.251
658.281,7.202
658.547,7.147
658.813,7.080
659.079,7.006
659.345,6.936
659.610,6.874
659.876,6.819
660.142,6.772
660.407,6.728
660.673,6.690
660.939,6.658
661.204,6.618
661.470,6.573
661.735,6.525
662.000,6.491
662.266,6.459
662.531,6.420
662.796,6.368
663.062,6.311
663.327,6.246
663.592,6.195
663.857,6.154
664.122,6.115
664.388,6.066
664.653,6.020
664.918,5.987
665.183,5.958
665.448,5.932
665.712,5.906
665.977,5.875
666.242,5.834
666.507,5.761
666.772,5.687
667.037,5.611
667.301,5.565
667.566,5.520
667.831,5.486
668.095,5.451
668.360,5.425
668.624,5.381
668.889,5.346
669.153,5.302
669.418,5.274
669.682,5.249
669.946,5.237
670.211,5.233
670.475,5.217
670.739,5.196
671.004,5.171
671.268,5.159
671.532,5.153
671.796,5.097
672.060,5.024
672.324,4.947
672.588,4.923
672.852,4.910
673.116,4.928
673.380,4.945
673.644,4.891
673.908,4.799
674.172,4.703
674.436,4.668
674.700,4.640
674.963,4.607
675.227,4.572
675.491,4.521
675.754,4.476
676.018,4.434
676.282,4.411
676.545,4.382
676.809,4.343
677.072,4.299
677.336,4.258
677.599,4.237
677.863,4.214
678.126,4.196
678.389,4.188
678.653,4.182
678.916,4.164
679.179,4.115
679.442,4.066
679.706,4.034
679.969,4.008
680.232,3.984
680.495,3.962
680.758,3.950
681.021,3.931
681.284,3.898
681.547,3.856
681.810,3.828
682.073,3.821
682.336,3.817
682.599,3.797
682.862,3.765
683.125,3.740
683.388,3.729
683.651,3.717
683.913,3.698
684.176,3.656
684.439,3.609
684.702,3.559
684.964,3.524
685.227,3.500
685.490,3.489
685.752,3.491
686.015,3.481
686.277,3.456
686.540,3.419
686.802,3.377
687.065,3.351
687.327,3.332
687.590,3.320
687.852,3.299
688.115,3.268
688.377,3.249
688.639,3.234
688.902,3.219
689.164,3.203
689.426,3.196
689.689,3.192
689.951,3.173
690.213,3.142
690.475,3.113
690.737,3.088
691.000,3.062
691.262,3.038
691.524,3.025
691.786,3.021
692.048,3.022
692.310,3.005
692.572,2.968
692.834,2.924
693.096,2.900
693.358,2.901
693.620,2.909
693.882,2.911
694.144,2.899
694.406,2.875
694.668,2.851
694.930,2.826
695.192,2.802
695.453,2.779
695.715,2.765
695.977,2.750
696.239,2.727
696.501,2.707
696.762,2.702
697.024,2.702
697.286,2.685
697.548,2.662
697.809,2.642
698.071,2.627
698.333,2.611
698.594,2.594
698.856,2.587
699.118,2.577
699.379,2.563
699.641,2.550
699.902,2.542
700.164,2.528
700.426,2.505
700.687,2.480
700.949,2.470
701.210,2.462
701.472,2.449
701.733,2.427
701.995,2.413
702.256,2.397
702.518,2.385
702.779,2.369
703.041,2.377
703.302,2.388
703.563,2.379
703.825,2.352
704.086,2.325
704.348,2.317
704.609,2.315
704.871,2.319
705.132,2.322
705.393,2.310
705.655,2.297
705.916,2.289
706.177,2.287
706.439,2.280
706.700,2.269
706.961,2.255
707.223,2.245
707.484,2.218
707.745,2.192
708.007,2.159
708.268,2.131
708.529,2.107
708.790,2.076
709.052,2.051
709.313,2.039
709.574,2.040
709.835,2.044
710.097,2.029
710.358,2.000
710.619,1.968
710.881,1.939
711.142,1.922
711.403,1.905
711.664,1.897
711.926,1.881
712.187,1.875
712.448,1.872
712.709,1.877
712.970,1.880
713.232,1.883
713.493,1.882
713.754,1.875
714.015,1.868
714.277,1.867
714.538,1.871
714.799,1.883
715.060,1.886
715.322,1.879
715.583,1.858
715.844,1.836
716.105,1.818
716.367,1.806
716.628,1.803
716.889,1.800
717.150,1.781
717.411,1.753
717.673,1.735
717.934,1.732
718.195,1.731
718.457,1.716
718.718,1.695
718.979,1.686
719.240,1.690
719.502,1.703
719.763,1.712
720.024,1.712
720.286,1.710
720.547,1.694
720.808,1.680
721.069,1.671
721.331,1.676
721.592,1.688
721.853,1.693
722.115,1.694
722.376,1.690
722.638,1.682
722.899,1.676
723.160,1.663
723.422,1.651
723.683,1.640
723.944,1.641
724.206,1.640
724.467,1.633
724.729,1.620
724.990,1.622
725.252,1.633
725.513,1.634
725.775,1.618
726.036,1.597
726.298,1.587
726.559,1.590
726.821,1.592
727.082,1.597
727.344,1.594
727.605,1.594
727.867,1.586
728.128,1.588
728.390,1.590
728.652,1.605
728.913,1.624
729.175,1.640
729.436,1.640
729.698,1.636
729.960,1.625
730.221,1.611
730.483,1.585
730.745,1.578
731.007,1.579
731.268,1.584
731.530,1.582
731.792,1.579
732.054,1.583
732.315,1.590
732.577,1.595
732.839,1.588
733.101,1.574
733.363,1.562
733.625,1.557
733.887,1.563
734.149,1.565
734.411,1.574
734.673,1.580
734.935,1.586
735.197,1.583
735.459,1.587
735.721,1.591
735.983,1.584
