Wavelength (nm),Intensity W33.2,,C:/Users/Brend/Desktop/LED Spectras v2/Spectrometer Data (White).sp,,,W33.2,
379.792,2.493,,2018-06-15 15:03:08,,Integration Time,233 ms,
380.000,2.486,,Analyze Light,,Number of Scans to Average,25,
380.209,2.479,,,,Smoothing,1,
380.418,2.496
380.627,2.524
380.837,2.554
381.048,2.571
381.259,2.575
381.471,2.575
381.683,2.582
381.896,2.600
382.110,2.606
382.324,2.622
382.538,2.648
382.753,2.677
382.969,2.672
383.185,2.656
383.402,2.640
383.619,2.649
383.837,2.668
384.055,2.705
384.274,2.736
384.493,2.753
384.712,2.748
384.932,2.747
385.153,2.754
385.374,2.772
385.596,2.791
385.818,2.824
386.040,2.853
386.263,2.883
386.487,2.893
386.710,2.897
386.935,2.878
387.159,2.867
387.385,2.855
387.610,2.858
387.836,2.865
388.063,2.881
388.289,2.898
388.517,2.911
388.744,2.909
388.972,2.926
389.201,2.939
389.430,2.962
389.659,2.973
389.889,2.994
390.119,3.009
390.349,3.027
390.580,3.052
390.811,3.069
391.042,3.074
391.274,3.080
391.507,3.090
391.739,3.095
391.972,3.084
392.205,3.087
392.439,3.110
392.673,3.146
392.907,3.174
393.142,3.199
393.377,3.214
393.612,3.234
393.848,3.240
394.084,3.249
394.320,3.251
394.557,3.272
394.794,3.291
395.031,3.321
395.269,3.342
395.507,3.364
395.745,3.364
395.983,3.367
396.222,3.375
396.461,3.408
396.700,3.443
396.940,3.467
397.180,3.474
397.420,3.470
397.660,3.465
397.901,3.461
398.142,3.466
398.383,3.471
398.625,3.470
398.866,3.482
399.108,3.518
399.351,3.578
399.593,3.595
399.836,3.588
400.079,3.564
400.322,3.561
400.566,3.558
400.809,3.562
401.053,3.572
401.298,3.592
401.542,3.613
401.787,3.639
402.031,3.658
402.277,3.681
402.522,3.684
402.767,3.696
403.013,3.689
403.259,3.698
403.505,3.696
403.752,3.707
403.998,3.712
404.245,3.748
404.492,3.782
404.739,3.808
404.986,3.815
405.234,3.824
405.482,3.831
405.730,3.833
405.978,3.833
406.226,3.833
406.475,3.826
406.723,3.828
406.972,3.842
407.221,3.871
407.470,3.885
407.720,3.904
407.969,3.903
408.219,3.925
408.469,3.950
408.719,3.991
408.969,4.007
409.219,4.027
409.470,4.037
409.720,4.059
409.971,4.074
410.222,4.103
410.473,4.116
410.724,4.120
410.976,4.121
411.227,4.142
411.479,4.158
411.731,4.178
411.983,4.178
412.235,4.185
412.487,4.180
412.740,4.197
412.992,4.208
413.245,4.228
413.497,4.230
413.750,4.240
414.003,4.240
414.257,4.249
414.510,4.250
414.763,4.273
415.017,4.286
415.270,4.301
415.524,4.295
415.778,4.295
416.032,4.302
416.286,4.329
416.540,4.352
416.794,4.382
417.049,4.394
417.303,4.411
417.558,4.421
417.812,4.436
418.067,4.444
418.322,4.455
418.577,4.454
418.832,4.456
419.088,4.442
419.343,4.446
419.598,4.440
419.854,4.455
420.109,4.463
420.365,4.498
420.621,4.521
420.876,4.548
421.132,4.554
421.388,4.558
421.645,4.558
421.901,4.572
422.157,4.584
422.413,4.606
422.670,4.616
422.926,4.626
423.183,4.617
423.439,4.639
423.696,4.674
423.953,4.749
424.210,4.807
424.467,4.834
424.724,4.830
424.981,4.821
425.238,4.835
425.495,4.885
425.753,4.935
426.010,4.986
426.267,5.019
426.525,5.074
426.782,5.126
427.040,5.185
427.298,5.240
427.555,5.318
427.813,5.389
428.071,5.456
428.329,5.509
428.587,5.567
428.845,5.629
429.103,5.703
429.361,5.778
429.619,5.860
429.878,5.942
430.136,6.042
430.394,6.141
430.653,6.272
430.911,6.418
431.170,6.572
431.428,6.696
431.687,6.808
431.946,6.919
432.204,7.052
432.463,7.197
432.722,7.351
432.981,7.508
433.240,7.684
433.499,7.873
433.758,8.082
434.017,8.274
434.276,8.463
434.535,8.639
434.794,8.831
435.053,9.042
435.312,9.279
435.572,9.519
435.831,9.776
436.090,10.043
436.350,10.338
436.609,10.646
436.869,10.962
437.128,11.277
437.388,11.591
437.647,11.918
437.907,12.277
438.166,12.639
438.426,13.008
438.686,13.370
438.946,13.758
439.205,14.171
439.465,14.612
439.725,15.078
439.985,15.554
440.245,16.025
440.505,16.498
440.765,16.982
441.025,17.480
441.285,17.986
441.545,18.506
441.805,19.043
442.065,19.599
442.325,20.172
442.585,20.784
442.846,21.422
443.106,22.110
443.366,22.825
443.626,23.559
443.887,24.298
444.147,25.052
444.407,25.838
444.668,26.649
444.928,27.491
445.189,28.386
445.449,29.317
445.710,30.279
445.970,31.268
446.231,32.320
446.491,33.446
446.752,34.611
447.012,35.808
447.273,37.052
447.534,38.354
447.794,39.695
448.055,41.072
448.316,42.533
448.577,44.083
448.837,45.705
449.098,47.384
449.359,49.106
449.620,50.856
449.881,52.628
450.142,54.440
450.403,56.341
450.664,58.337
450.924,60.404
451.185,62.508
451.446,64.631
451.707,66.780
451.969,68.952
452.230,71.129
452.491,73.290
452.752,75.411
453.013,77.487
453.274,79.518
453.535,81.463
453.796,83.226
454.058,84.752
454.319,86.021
454.580,87.091
454.841,87.992
455.103,88.773
455.364,89.443
455.625,90.043
455.887,90.566
456.148,91.026
456.409,91.411
456.671,91.719
456.932,91.958
457.194,92.127
457.455,92.240
457.716,92.296
457.978,92.308
458.239,92.272
458.501,92.189
458.763,92.053
459.024,91.871
459.286,91.642
459.547,91.365
459.809,91.017
460.071,90.595
460.332,90.104
460.594,89.562
460.856,88.969
461.117,88.309
461.379,87.573
461.641,86.747
461.903,85.790
462.164,84.671
462.426,83.389
462.688,81.973
462.950,80.464
463.212,78.916
463.474,77.363
463.736,75.841
463.998,74.384
464.260,73.011
464.522,71.708
464.784,70.443
465.046,69.216
465.308,68.079
465.570,67.025
465.832,66.048
466.094,65.111
466.356,64.221
466.618,63.375
466.880,62.547
467.142,61.759
467.405,61.023
467.667,60.393
467.929,59.818
468.191,59.270
468.454,58.704
468.716,58.131
468.978,57.536
469.241,56.929
469.503,56.322
469.765,55.754
470.028,55.217
470.290,54.691
470.552,54.157
470.815,53.621
471.077,53.078
471.340,52.524
471.602,51.941
471.865,51.329
472.128,50.707
472.390,50.085
472.653,49.478
472.915,48.864
473.178,48.233
473.441,47.575
473.703,46.870
473.966,46.138
474.229,45.395
474.492,44.666
474.755,43.921
475.017,43.198
475.280,42.478
475.543,41.784
475.806,41.036
476.069,40.272
476.332,39.494
476.595,38.773
476.858,38.069
477.121,37.378
477.384,36.685
477.647,36.018
477.910,35.385
478.173,34.760
478.436,34.137
478.699,33.537
478.962,32.963
479.226,32.434
479.489,31.924
479.752,31.437
480.015,30.966
480.279,30.505
480.542,30.062
480.805,29.630
481.069,29.198
481.332,28.783
481.595,28.394
481.859,28.073
482.122,27.768
482.386,27.456
482.649,27.125
482.913,26.811
483.177,26.507
483.440,26.227
483.704,25.973
483.967,25.777
484.231,25.597
484.495,25.431
484.759,25.240
485.022,25.024
485.286,24.804
485.550,24.592
485.814,24.379
486.078,24.180
486.342,24.002
486.606,23.870
486.869,23.746
487.133,23.635
487.397,23.525
487.662,23.404
487.926,23.256
488.190,23.101
488.454,22.949
488.718,22.831
488.982,22.703
489.246,22.597
489.511,22.467
489.775,22.335
490.039,22.188
490.304,22.047
490.568,21.910
490.832,21.789
491.097,21.684
491.361,21.599
491.626,21.513
491.890,21.434
492.155,21.355
492.419,21.292
492.684,21.207
492.949,21.127
493.213,21.058
493.478,21.031
493.743,20.999
494.008,20.947
494.272,20.890
494.537,20.875
494.802,20.885
495.067,20.919
495.332,20.944
495.597,20.973
495.862,20.976
496.127,20.989
496.392,21.001
496.657,21.023
496.922,21.055
497.187,21.119
497.452,21.204
497.718,21.322
497.983,21.419
498.248,21.514
498.513,21.580
498.779,21.677
499.044,21.769
499.310,21.852
499.575,21.910
499.841,21.989
500.106,22.087
500.372,22.184
500.637,22.285
500.903,22.414
501.168,22.547
501.434,22.668
501.700,22.757
501.966,22.870
502.231,22.984
502.497,23.110
502.763,23.214
503.029,23.329
503.295,23.446
503.561,23.575
503.827,23.705
504.093,23.837
504.359,23.961
504.625,24.098
504.891,24.227
505.157,24.379
505.423,24.504
505.690,24.636
505.956,24.770
506.222,24.937
506.489,25.122
506.755,25.302
507.021,25.464
507.288,25.619
507.554,25.742
507.821,25.863
508.087,25.981
508.354,26.141
508.621,26.289
508.887,26.422
509.154,26.536
509.421,26.666
509.687,26.787
509.954,26.910
510.221,27.029
510.488,27.186
510.755,27.348
511.022,27.509
511.289,27.622
511.556,27.731
511.823,27.825
512.090,27.962
512.357,28.084
512.624,28.209
512.891,28.321
513.159,28.430
513.426,28.547
513.693,28.661
513.960,28.784
514.228,28.910
514.495,29.036
514.763,29.165
515.030,29.289
515.298,29.406
515.565,29.535
515.833,29.664
516.100,29.782
516.368,29.868
516.636,29.926
516.904,30.013
517.171,30.095
517.439,30.193
517.707,30.275
517.975,30.390
518.243,30.517
518.511,30.625
518.779,30.691
519.047,30.773
519.315,30.867
519.583,30.968
519.851,31.043
520.119,31.131
520.387,31.236
520.656,31.344
520.924,31.437
521.192,31.511
521.461,31.569
521.729,31.631
521.997,31.694
522.266,31.773
522.534,31.852
522.803,31.945
523.071,32.027
523.340,32.103
523.609,32.162
523.877,32.229
524.146,32.305
524.415,32.391
524.684,32.473
524.952,32.550
525.221,32.621
525.490,32.709
525.759,32.793
526.028,32.871
526.297,32.913
526.566,32.954
526.835,32.995
527.104,33.060
527.373,33.127
527.642,33.193
527.912,33.229
528.181,33.254
528.450,33.282
528.719,33.331
528.989,33.396
529.258,33.468
529.528,33.522
529.797,33.545
530.067,33.565
530.336,33.589
530.606,33.613
530.875,33.623
531.145,33.642
531.414,33.691
531.684,33.755
531.954,33.806
532.224,33.834
532.493,33.843
532.763,33.860
533.033,33.896
533.303,33.947
533.573,34.001
533.843,34.015
534.113,34.024
534.383,34.016
534.653,34.035
534.923,34.058
535.193,34.099
535.463,34.138
535.733,34.177
536.004,34.214
536.274,34.247
536.544,34.264
536.814,34.272
537.085,34.284
537.355,34.334
537.626,34.388
537.896,34.442
538.166,34.473
538.437,34.525
538.707,34.576
538.978,34.652
539.249,34.737
539.519,34.819
539.790,34.859
540.061,34.868
540.331,34.878
540.602,34.908
540.873,34.929
541.144,34.947
541.414,34.942
541.685,34.940
541.956,34.926
542.227,34.921
542.498,34.924
542.769,34.951
543.040,35.002
543.311,35.078
543.582,35.159
543.853,35.238
544.124,35.295
544.396,35.344
544.667,35.372
544.938,35.383
545.209,35.326
545.480,35.263
545.752,35.198
546.023,35.185
546.294,35.146
546.566,35.101
546.837,35.051
547.109,35.039
547.380,35.044
547.652,35.045
547.923,35.049
548.195,35.065
548.466,35.091
548.738,35.105
549.009,35.072
549.281,35.020
549.553,34.953
549.824,34.903
550.096,34.876
550.368,34.878
550.640,34.887
550.911,34.889
551.183,34.883
551.455,34.883
551.727,34.872
551.999,34.848
552.271,34.811
552.543,34.798
552.815,34.781
553.087,34.782
553.359,34.772
553.631,34.761
553.903,34.727
554.175,34.688
554.447,34.659
554.719,34.643
554.991,34.616
555.263,34.588
555.535,34.551
555.808,34.532
556.080,34.516
556.352,34.501
556.624,34.460
556.897,34.394
557.169,34.319
557.441,34.250
557.714,34.179
557.986,34.130
558.258,34.081
558.531,34.072
558.803,34.051
559.076,34.042
559.348,33.998
559.621,33.943
559.893,33.875
560.166,33.818
560.438,33.767
560.711,33.728
560.983,33.700
561.256,33.706
561.528,33.724
561.801,33.725
562.074,33.692
562.346,33.645
562.619,33.584
562.892,33.518
563.164,33.445
563.437,33.408
563.710,33.377
563.983,33.351
564.255,33.316
564.528,33.325
564.801,33.356
565.074,33.389
565.346,33.374
565.619,33.336
565.892,33.281
566.165,33.224
566.438,33.137
566.711,33.044
566.984,32.957
567.257,32.892
567.529,32.844
567.802,32.814
568.075,32.786
568.348,32.748
568.621,32.682
568.894,32.603
569.167,32.511
569.440,32.429
569.713,32.325
569.986,32.219
570.259,32.089
570.532,32.000
570.805,31.933
571.078,31.900
571.351,31.853
571.625,31.811
571.898,31.742
572.171,31.660
572.444,31.549
572.717,31.446
572.990,31.340
573.263,31.234
573.536,31.119
573.809,31.007
574.083,30.912
574.356,30.844
574.629,30.809
574.902,30.781
575.175,30.731
575.448,30.651
575.721,30.552
575.995,30.476
576.268,30.417
576.541,30.390
576.814,30.356
577.087,30.331
577.361,30.297
577.634,30.260
577.907,30.191
578.180,30.085
578.453,29.969
578.727,29.872
579.000,29.788
579.273,29.726
579.546,29.680
579.820,29.672
580.093,29.646
580.366,29.604
580.639,29.528
580.913,29.458
581.186,29.386
581.459,29.319
581.732,29.226
582.005,29.133
582.279,29.011
582.552,28.899
582.825,28.791
583.098,28.723
583.372,28.675
583.645,28.646
583.918,28.623
584.191,28.603
584.464,28.576
584.738,28.544
585.011,28.488
585.284,28.396
585.557,28.279
585.831,28.171
586.104,28.094
586.377,28.058
586.650,28.020
586.923,27.972
587.196,27.909
587.470,27.844
587.743,27.776
588.016,27.707
588.289,27.626
588.562,27.546
588.835,27.447
589.109,27.347
589.382,27.253
589.655,27.188
589.928,27.144
590.201,27.109
590.474,27.082
590.747,27.059
591.020,27.014
591.293,26.936
591.567,26.819
591.840,26.681
592.113,26.522
592.386,26.361
592.659,26.204
592.932,26.088
593.205,26.014
593.478,25.973
593.751,25.922
594.024,25.874
594.297,25.807
594.570,25.733
594.843,25.641
595.116,25.555
595.389,25.467
595.662,25.374
595.934,25.283
596.207,25.215
596.480,25.146
596.753,25.069
597.026,24.976
597.299,24.900
597.572,24.818
597.844,24.726
598.117,24.594
598.390,24.464
598.663,24.318
598.936,24.190
599.208,24.062
599.481,23.955
599.754,23.864
600.026,23.777
600.299,23.689
600.572,23.597
600.844,23.484
601.117,23.356
601.390,23.231
601.662,23.123
601.935,23.006
602.207,22.883
602.480,22.764
602.752,22.657
603.025,22.534
603.297,22.415
603.570,22.324
603.842,22.274
604.115,22.204
604.387,22.119
604.660,21.996
604.932,21.878
605.204,21.745
605.477,21.621
605.749,21.503
606.021,21.399
606.294,21.293
606.566,21.185
606.838,21.088
607.110,21.006
607.383,20.943
607.655,20.890
607.927,20.844
608.199,20.788
608.471,20.694
608.743,20.564
609.015,20.418
609.287,20.281
609.559,20.158
609.831,20.042
610.103,19.919
610.375,19.787
610.647,19.639
610.919,19.489
611.191,19.339
611.463,19.208
611.735,19.078
612.007,18.937
612.278,18.785
612.550,18.644
612.822,18.522
613.094,18.410
613.365,18.282
613.637,18.165
613.909,18.035
614.180,17.925
614.452,17.796
614.723,17.668
614.995,17.537
615.266,17.431
615.538,17.350
615.809,17.275
616.081,17.168
616.352,17.043
616.623,16.905
616.895,16.784
617.166,16.652
617.437,16.528
617.709,16.409
617.980,16.320
618.251,16.246
618.522,16.192
618.793,16.147
619.065,16.120
619.336,16.049
619.607,15.941
619.878,15.809
620.149,15.703
620.420,15.592
620.691,15.475
620.962,15.361
621.232,15.272
621.503,15.170
621.774,15.081
622.045,14.996
622.316,14.957
622.586,14.910
622.857,14.867
623.128,14.785
623.398,14.699
623.669,14.588
623.940,14.477
624.210,14.352
624.481,14.260
624.751,14.177
625.021,14.100
625.292,14.014
625.562,13.957
625.833,13.904
626.103,13.852
626.373,13.772
626.643,13.708
626.914,13.642
627.184,13.586
627.454,13.506
627.724,13.419
627.994,13.327
628.264,13.246
628.534,13.165
628.804,13.093
629.074,13.035
629.344,12.983
629.614,12.931
629.884,12.870
630.154,12.807
630.424,12.728
630.693,12.633
630.963,12.517
631.233,12.405
631.502,12.316
631.772,12.257
632.041,12.205
632.311,12.138
632.581,12.065
632.850,11.993
633.119,11.912
633.389,11.831
633.658,11.760
633.928,11.719
634.197,11.697
634.466,11.674
634.735,11.638
635.004,11.566
635.274,11.480
635.543,11.389
635.812,11.316
636.081,11.259
636.350,11.211
636.619,11.163
636.888,11.107
637.157,11.048
637.426,10.994
637.694,10.942
637.963,10.884
638.232,10.829
638.501,10.769
638.769,10.724
639.038,10.678
639.307,10.644
639.575,10.603
639.844,10.536
640.112,10.455
640.381,10.364
640.649,10.299
640.917,10.253
641.186,10.209
641.454,10.165
641.722,10.105
641.991,10.045
642.259,9.969
642.527,9.899
642.795,9.841
643.063,9.780
643.331,9.723
643.599,9.669
643.867,9.652
644.135,9.633
644.403,9.612
644.671,9.558
644.939,9.507
645.206,9.444
645.474,9.387
645.742,9.316
646.009,9.238
646.277,9.178
646.545,9.125
646.812,9.090
647.080,9.053
647.347,9.009
647.615,8.953
647.882,8.879
648.149,8.807
648.417,8.737
648.684,8.681
648.951,8.635
649.219,8.597
649.486,8.552
649.753,8.495
650.020,8.421
650.287,8.346
650.554,8.269
650.821,8.205
651.088,8.138
651.355,8.099
651.622,8.051
651.889,8.013
652.155,7.955
652.422,7.913
652.689,7.877
652.956,7.839
653.222,7.800
653.489,7.776
653.755,7.736
654.022,7.659
654.288,7.553
654.555,7.467
654.821,7.411
655.088,7.370
655.354,7.331
655.620,7.307
655.887,7.273
656.153,7.232
656.419,7.176
656.685,7.124
656.951,7.074
657.217,7.023
657.483,6.967
657.749,6.909
658.015,6.862
658.281,6.816
658.547,6.758
658.813,6.692
659.079,6.624
659.345,6.559
659.610,6.497
659.876,6.444
660.142,6.407
660.407,6.374
660.673,6.339
660.939,6.313
661.204,6.273
661.470,6.230
661.735,6.180
662.000,6.149
662.266,6.110
662.531,6.058
662.796,6.001
663.062,5.948
663.327,5.897
663.592,5.855
663.857,5.817
664.122,5.782
664.388,5.735
664.653,5.699
664.918,5.677
665.183,5.656
665.448,5.635
665.712,5.607
665.977,5.581
666.242,5.545
666.507,5.477
666.772,5.411
667.037,5.344
667.301,5.309
667.566,5.270
667.831,5.245
668.095,5.212
668.360,5.185
668.624,5.134
668.889,5.109
669.153,5.080
669.418,5.065
669.682,5.038
669.946,5.018
670.211,5.012
670.475,5.003
670.739,4.986
671.004,4.965
671.268,4.958
671.532,4.968
671.796,4.915
672.060,4.840
672.324,4.750
672.588,4.724
672.852,4.713
673.116,4.740
673.380,4.769
673.644,4.711
673.908,4.605
674.172,4.496
674.436,4.471
674.700,4.457
674.963,4.438
675.227,4.412
675.491,4.366
675.754,4.319
676.018,4.272
676.282,4.246
676.545,4.216
676.809,4.177
677.072,4.133
677.336,4.096
677.599,4.077
677.863,4.054
678.126,4.037
678.389,4.027
678.653,4.021
678.916,4.002
679.179,3.959
679.442,3.917
679.706,3.895
679.969,3.880
680.232,3.859
680.495,3.839
680.758,3.825
681.021,3.800
681.284,3.755
681.547,3.709
681.810,3.691
682.073,3.700
682.336,3.697
682.599,3.675
682.862,3.647
683.125,3.632
683.388,3.626
683.651,3.611
683.913,3.591
684.176,3.547
684.439,3.494
684.702,3.438
684.964,3.405
685.227,3.395
685.490,3.403
685.752,3.419
686.015,3.413
686.277,3.386
686.540,3.346
686.802,3.308
687.065,3.288
687.327,3.276
687.590,3.266
687.852,3.239
688.115,3.200
688.377,3.170
688.639,3.152
688.902,3.140
689.164,3.130
689.426,3.129
689.689,3.128
689.951,3.109
690.213,3.081
690.475,3.054
690.737,3.032
691.000,3.008
691.262,2.990
691.524,2.989
691.786,3.002
692.048,3.012
692.310,2.997
692.572,2.954
692.834,2.904
693.096,2.880
693.358,2.883
693.620,2.895
693.882,2.901
694.144,2.891
694.406,2.865
694.668,2.839
694.930,2.814
695.192,2.792
695.453,2.776
695.715,2.765
695.977,2.751
696.239,2.726
696.501,2.705
696.762,2.701
697.024,2.701
697.286,2.683
697.548,2.658
697.809,2.636
698.071,2.618
698.333,2.602
698.594,2.586
698.856,2.582
699.118,2.577
699.379,2.568
699.641,2.560
699.902,2.557
700.164,2.547
700.426,2.531
700.687,2.507
700.949,2.498
701.210,2.490
701.472,2.476
701.733,2.449
701.995,2.435
702.256,2.424
702.518,2.417
702.779,2.401
703.041,2.409
703.302,2.424
703.563,2.415
703.825,2.384
704.086,2.357
704.348,2.349
704.609,2.352
704.871,2.361
705.132,2.371
705.393,2.359
705.655,2.340
705.916,2.327
706.177,2.324
706.439,2.320
706.700,2.311
706.961,2.302
707.223,2.296
707.484,2.268
707.745,2.238
708.007,2.207
708.268,2.182
708.529,2.158
708.790,2.124
709.052,2.099
709.313,2.089
709.574,2.088
709.835,2.087
710.097,2.070
710.358,2.039
710.619,2.014
710.881,1.990
711.142,1.975
711.403,1.957
711.664,1.945
711.926,1.927
712.187,1.922
712.448,1.921
712.709,1.933
712.970,1.944
713.232,1.949
713.493,1.949
713.754,1.941
714.015,1.939
714.277,1.946
714.538,1.956
714.799,1.972
715.060,1.974
715.322,1.967
715.583,1.943
715.844,1.917
716.105,1.891
716.367,1.874
716.628,1.869
716.889,1.869
717.150,1.855
717.411,1.826
717.673,1.809
717.934,1.806
718.195,1.813
718.457,1.800
718.718,1.774
718.979,1.757
719.240,1.761
719.502,1.779
719.763,1.793
720.024,1.795
720.286,1.789
720.547,1.772
720.808,1.755
721.069,1.745
721.331,1.751
721.592,1.770
721.853,1.778
722.115,1.779
722.376,1.776
722.638,1.770
722.899,1.764
723.160,1.748
723.422,1.733
723.683,1.719
723.944,1.719
724.206,1.719
724.467,1.717
724.729,1.714
724.990,1.724
725.252,1.734
725.513,1.724
725.775,1.696
726.036,1.673
726.298,1.665
726.559,1.671
726.821,1.672
727.082,1.675
727.344,1.668
727.605,1.668
727.867,1.662
728.128,1.667
728.390,1.673
728.652,1.693
728.913,1.717
729.175,1.730
729.436,1.726
729.698,1.721
729.960,1.711
730.221,1.700
730.483,1.673
730.745,1.661
731.007,1.657
731.268,1.660
731.530,1.662
731.792,1.661
732.054,1.665
732.315,1.671
732.577,1.679
732.839,1.675
733.101,1.661
733.363,1.648
733.625,1.646
733.887,1.654
734.149,1.659
734.411,1.668
734.673,1.673
734.935,1.676
735.197,1.669
735.459,1.671
735.721,1.676
735.983,1.675
